EEG 1, EEG 2, EEG 3, EEG 4, EEG 5, EEG 6, EEG 7, EEG 8, TRIG
54761.600,750000.100,750000.100,698884.400,-44712.070,618431.500,567494.000,750000.100,0.000
750000.100,750000.100,750000.100,750000.100,750000.100,750000.100,750000.100,750000.100,0.000
750000.100,750000.100,750000.100,750000.100,750000.100,750000.100,750000.100,750000.100,0.000
750000.100,750000.100,750000.100,750000.100,750000.100,750000.100,750000.100,750000.100,0.000
750000.100,750000.100,750000.100,750000.100,750000.100,750000.100,750000.100,750000.100,0.000
750000.100,750000.100,750000.100,750000.100,750000.100,750000.100,750000.100,750000.100,0.000
675187.300,639322.900,750000.100,750000.100,747705.500,701100.900,720914.500,666633.900,0.000
560125.200,525213.400,750000.100,750000.100,574698.800,580964.700,589482.300,547006.900,0.000
479285.600,449603.500,750000.100,750000.100,488617.000,496874.600,505100.400,470678.000,0.000
418715.200,396766.700,750000.100,750000.100,457722.300,434734.400,447871.700,417195.800,0.000
369199.300,352182.500,750000.100,750000.100,424288.100,383798.800,398197.300,369472.800,0.000
339825.800,322056.900,750000.100,750000.100,375134.100,353250.000,362880.800,336040.300,0.000
322409.000,302594.900,750000.100,750000.100,329824.100,334682.200,339624.800,315605.300,0.000
314577.800,295416.200,750000.100,750000.100,320664.100,326305.700,331989.000,309823.200,0.000
312323.900,296125.000,750000.100,750000.100,341477.800,324278.000,334407.100,311895.600,0.000
306329.700,292237.800,750000.100,750000.100,351153.100,318371.000,330623.300,307131.200,0.000
292896.700,277685.400,750000.100,750000.100,322273.800,304409.200,313060.500,290307.500,0.000
280623.800,263481.300,750000.100,750000.100,286102.500,291201.300,295848.300,275396.300,0.000
276121.300,259361.400,750000.100,750000.100,280487.500,286260.700,291575.500,272592.400,0.000
276213.100,261930.500,736195.800,750000.100,300922.900,286625.900,295869.800,276439.300,0.000
272829.100,260307.700,714306.300,750000.100,311614.900,283412.800,294565.300,274120.100,0.000
262609.200,248996.500,688971.400,750000.100,287828.300,272806.100,280783.000,260852.200,0.000
253204.400,237766.300,665616.600,750000.100,257114.900,262619.400,267027.300,249027.600,0.000
250596.100,235418.800,648699.300,750000.100,253589.100,259662.400,264693.600,247897.800,0.000
252028.500,239024.100,636137.600,750000.100,273595.300,261407.600,270022.800,252710.800,0.000
250187.800,238725.800,622317.000,750000.100,284745.400,259775.600,270156.500,251811.900,0.000
241953.600,229430.400,604605.100,750000.100,264221.200,251230.600,258724.900,240747.900,0.000
234320.900,220060.900,588078.900,750000.100,237061.400,242926.200,247142.700,230855.900,0.000
232862.500,218784.100,576950.600,750000.100,234820.600,241193.200,245998.600,230739.000,0.000
235094.600,222983.300,569408.500,750000.100,254387.400,243749.000,251907.400,236084.200,0.000
234212.600,223492.800,560285.200,750000.100,265708.600,243098.300,252924.800,236059.000,0.000
227275.400,215523.100,547150.500,739855.600,247371.300,235908.600,243053.900,226460.700,0.000
220821.200,207394.500,534775.000,713480.100,222664.400,228855.200,232943.400,217866.100,0.000
220125.100,206827.900,527186.300,700280.600,221282.700,227926.100,232583.500,218409.500,0.000
222867.800,211395.100,522732.000,697518.100,240469.400,231002.400,238843.700,224079.900,0.000
222638.300,212455.900,516554.300,690559.100,251886.500,231007.600,240449.500,224644.800,0.000
216608.700,205412.800,506346.400,670215.400,235090.800,224759.300,231662.100,216064.200,0.000
210982.400,198161.300,496659.700,648657.300,212125.800,218586.600,222581.500,208378.300,0.000
210798.400,198078.000,491361.200,639361.800,211333.800,218201.300,222747.100,209364.800,0.000
213876.900,202880.400,488909.200,639809.900,230217.500,221621.700,229226.500,215238.800,0.000
214082.200,204300.200,484667.800,636011.900,241669.700,222078.100,231227.900,216201.500,0.000
208690.400,197914.800,476422.400,619128.100,225979.000,216492.900,223215.200,208349.800,0.000
203653.800,191291.100,468558.200,600843.700,204272.400,210949.400,214877.300,201321.200,0.000
203835.400,191543.500,464816.000,594180.000,203894.800,210947.400,215409.400,202617.900,0.000
207161.200,196512.400,463729.700,596785.500,222546.500,214613.600,222037.300,208629.800,0.000
207688.600,198199.300,460827.800,595147.300,234016.800,215394.300,224324.900,209884.000,0.000
202765.100,192296.700,453956.600,580669.600,219142.000,210297.800,216880.100,202567.600,0.000
198160.500,186136.300,447367.400,564673.100,198363.500,205198.400,209075.500,196012.700,0.000
198603.800,186639.000,444709.200,559853.800,198293.100,205484.800,209885.900,197541.000,0.000
202093.000,191721.400,444577.800,563959.800,216754.500,209325.500,216618.500,203648.400,0.000
202848.400,193599.500,442621.200,563840.400,228224.600,210341.700,219108.900,205104.200,0.000
198272.800,188052.000,436734.400,551082.800,213949.700,205601.400,212078.500,198181.000,0.000
193987.300,182231.800,431066.000,536745.100,193882.000,200847.700,204682.400,191988.100,0.000
194626.400,182915.900,429195.200,533256.300,194051.200,201345.300,205697.300,193684.000,0.000
198244.900,188080.600,429755.600,538439.400,212356.500,205311.600,212498.200,199859.100,0.000
199170.500,190092.900,428482.800,539418.600,223810.200,206494.800,215134.500,201470.300,0.000
194851.900,184812.100,423314.300,527930.200,210004.800,202027.000,208425.400,194849.800,0.000
190805.900,179251.500,418325.800,514812.200,190474.700,197528.700,201338.200,188926.600,0.000
191595.600,180075.800,417033.500,512301.500,190807.200,198180.900,202501.400,190747.500,0.000
195311.900,185305.400,418106.000,518287.900,208990.300,202246.300,209359.700,196973.700,0.000
196368.000,187423.000,417342.500,520083.600,220425.600,203566.200,212108.800,198697.500,0.000
192244.700,182345.500,412712.600,509532.300,206969.100,199298.800,205634.600,192301.800,0.000
188379.000,176978.700,408228.200,497325.900,187852.500,194992.700,198777.800,186585.800,0.000
189271.400,177899.400,407364.700,495543.800,188310.200,195758.700,200051.800,188499.000,0.000
193048.900,183166.800,408815.200,502121.200,206382.400,199889.800,206944.600,194755.800,0.000
194201.300,185364.500,408440.500,504532.200,217807.300,201308.400,209782.700,196568.000,0.000
190228.500,180444.100,404222.900,494703.400,204626.600,197198.600,203496.100,190348.700,0.000
186506.500,175231.300,400127.500,483197.700,185829.300,193050.200,196823.800,184793.600,0.000
187493.400,176238.500,399599.100,481977.500,186390.900,193902.600,198180.500,186777.500,0.000
191324.300,181537.600,401343.900,489008.000,204386.300,198083.600,205097.900,193059.300,0.000
192547.300,183792.100,401263.000,491884.300,215788.200,199575.700,207997.900,194938.000,0.000
188693.500,178991.900,397358.700,482608.300,202815.400,195589.900,201854.400,188854.400,0.000
185085.900,173900.100,393566.900,471649.200,184271.900,191557.400,195319.000,183424.600,0.000
186138.800,174969.200,393299.000,470868.900,184914.700,192493.600,196752.900,185471.200,0.000
190008.500,180294.100,395269.000,478251.200,202851.300,196716.000,203695.600,191774.200,0.000
191287.700,182595.700,395419.300,481493.600,214250.800,198262.000,206641.400,193701.100,0.000
187521.700,177886.900,391763.500,472646.300,201432.500,194367.700,200601.800,187718.400,0.000
183998.700,172887.500,388205.400,462110.400,183082.600,190423.300,194173.000,182380.900,0.000
185099.800,174003.300,388132.900,461666.700,183778.300,191404.500,195654.500,184465.200,0.000
189004.200,179348.900,390284.500,469329.500,201669.800,195661.900,202617.700,190791.500,0.000
190324.800,181684.000,390618.300,472862.900,213073.300,197257.100,205609.500,192766.600,0.000
186624.800,177045.800,387152.000,464352.800,200373.400,193429.400,199655.600,186861.100,0.000
183172.500,172117.900,383776.300,454147.800,182157.600,189554.800,193309.300,181593.500,0.000
184314.200,173271.700,383864.800,453975.000,182903.500,190582.200,194831.500,183712.500,0.000
188239.100,178631.700,386154.700,461853.000,200766.700,194863.600,201802.900,190048.100,0.000
189599.000,180998.400,386627.800,465615.800,212163.300,196496.400,204823.200,192049.800,0.000
185953.200,176416.000,383312.800,457377.700,199556.700,192730.700,198935.400,186206.900,0.000
182542.500,171535.700,380076.600,447432.600,181446.300,188905.700,192649.300,180994.100,0.000
183716.700,172715.400,380287.800,447474.900,182230.600,189964.400,194206.000,183143.200,0.000
187669.000,178095.800,382696.500,455542.900,200089.300,194274.400,201201.400,189500.400,0.000
189053.400,180483.900,383283.300,459487.200,211490.500,195931.600,204243.500,191528.600,0.000
185449.600,175943.100,380087.800,451456.400,198949.000,192202.900,198400.400,185730.600,0.000
182081.300,171106.300,376969.900,441720.100,180926.300,188422.300,192165.200,180563.200,0.000
183283.500,172312.300,377284.000,441935.600,181741.000,189512.100,193750.300,182732.900,0.000
187247.900,177697.900,379776.200,450142.300,199576.800,193826.100,200745.600,189092.500,0.000
188654.100,180104.200,380450.200,454237.400,210983.300,195502.100,203803.000,191136.700,0.000
185079.700,175597.300,377347.400,446374.100,198500.100,191804.300,197998.600,185372.500,0.000
181737.200,170785.800,374311.500,436792.300,180530.500,188049.400,191793.000,180229.700,0.000
182955.000,172006.900,374698.900,437144.100,181365.600,189154.400,193391.400,182412.300,0.000
186931.000,177401.800,377264.500,445475.300,199189.100,193489.300,200402.400,188782.700,0.000
188357.700,179824.100,378016.600,449696.900,210595.100,195187.800,203481.600,190846.400,0.000
184804.800,175335.300,374987.300,441965.900,198144.700,191515.100,197703.100,185107.000,0.000
181483.300,170546.600,372023.800,432519.800,180230.300,187781.100,191524.600,179990.600,0.000
182717.300,171783.100,372478.800,432986.200,181082.600,188901.700,193137.100,182182.300,0.000
186698.100,177181.000,375099.300,441413.600,198890.400,193240.300,200146.900,188553.000,0.000
188131.700,179609.900,375904.700,445738.100,210292.200,194946.800,203234.000,190625.800,0.000
184594.200,175136.200,372935.400,438114.600,197865.500,191288.100,197474.600,184905.200,0.000
181289.300,170368.100,370032.500,428776.600,179985.800,187575.000,191321.000,179811.100,0.000
182535.000,171613.500,370542.100,429339.300,180855.500,188707.600,192945.600,182016.200,0.000
186530.100,177019.800,373215.400,437854.600,198663.800,193055.800,199960.600,188390.600,0.000
187966.700,179447.100,374064.400,442255.600,210066.300,194772.400,203051.600,190466.500,0.000
184437.900,174981.000,371138.500,434711.800,197657.200,191124.000,197304.000,184759.200,0.000
181144.300,170224.500,368282.200,425457.300,179798.400,187424.000,191168.000,179681.800,0.000
182392.700,171477.900,368829.800,426093.900,180676.700,188554.900,192795.700,181889.200,0.000
186389.000,176886.900,371536.800,434677.700,198483.100,192908.300,199813.200,188263.300,0.000
187838.200,179328.800,372427.600,439155.400,209890.400,194636.700,202916.100,190349.900,0.000
184323.900,174880.400,369544.900,431692.200,197501.600,191000.900,197180.800,184654.600,0.000
181033.000,170129.200,366718.800,422498.800,179652.900,187294.500,191040.800,179574.000,0.000
182284.700,171386.200,367298.000,423195.900,180536.100,188436.400,192675.200,181788.100,0.000
186290.300,176803.000,370041.000,431841.300,198349.200,192798.500,199700.200,188170.000,0.000
187740.900,179246.300,370958.500,436375.000,209758.100,194526.800,202802.200,190257.100,0.000
184226.600,174801.400,368104.600,428966.900,197365.600,190896.100,197071.700,184567.200,0.000
180948.900,170064.300,365316.400,419841.300,179539.400,187208.000,190954.800,179504.500,0.000
182205.600,171322.900,365922.300,420591.300,180436.300,188350.200,192594.000,181722.800,0.000
186213.900,176737.300,368690.800,429286.300,198251.600,192715.300,199621.400,188105.400,0.000
187672.400,179183.100,369643.300,433871.800,209660.500,194450.400,202732.800,190198.700,0.000
184166.800,174742.500,366819.300,426514.800,197280.200,190824.400,197011.900,184514.200,0.000
180887.700,170003.200,364051.400,417434.000,179461.100,187138.700,190896.300,179452.300,0.000
182157.100,171273.700,364686.300,418239.900,180377.800,188295.700,192549.200,181679.800,0.000
186170.300,176693.800,367477.300,426973.900,198185.700,192661.400,199577.800,188063.200,0.000
187627.500,179136.900,368444.200,431583.600,209568.300,194388.100,202676.400,190150.200,0.000
184116.400,174694.500,365637.900,424262.600,197192.300,190766.800,196955.800,184470.000,0.000
180859.100,169976.200,362903.200,415252.300,179434.300,187110.600,190868.900,179432.800,0.000
182135.700,171255.700,363564.100,416116.500,180384.200,188274.200,192531.000,181665.300,0.000
186130.000,176659.600,366364.200,424864.000,198147.200,192623.100,199537.400,188028.500,0.000
187562.300,179082.300,367336.000,429472.300,209457.800,194330.000,202610.800,190095.300,0.000
184067.200,174651.900,364553.700,422201.900,197108.500,190718.300,196903.000,184430.400,0.000
180830.900,169954.500,361848.200,413274.000,179424.400,187084.200,190845.400,179417.000,0.000
182109.500,171233.000,362522.000,414178.700,180374.700,188249.500,192509.200,181650.000,0.000
186091.300,176620.300,365326.700,422927.100,198079.400,192579.300,199494.400,187993.800,0.000
187518.000,179032.200,366309.600,427544.500,209352.300,194276.500,202556.300,190052.400,0.000
184042.700,174619.700,363552.800,420333.000,197031.900,190683.500,196868.600,184408.300,0.000
180826.800,169943.400,360873.200,411468.700,179389.800,187072.700,190832.900,179414.600,0.000
182104.200,171222.300,361564.300,412412.500,180358.900,188248.100,192504.300,181648.400,0.000
186067.200,176595.900,364375.900,421166.700,198040.600,192564.900,199472.900,187974.900,0.000
187476.300,178994.700,365363.200,425778.500,209268.500,194241.700,202511.500,190016.500,0.000
184006.100,174587.300,362618.100,418595.800,196946.700,190652.200,196837.300,184382.200,0.000
180815.800,169932.700,359963.500,409790.200,179353.000,187066.200,190838.300,179413.800,0.000
182109.500,171229.800,360677.400,410774.800,180361.400,188252.900,192524.300,181657.500,0.000
186058.500,176592.000,363496.900,419526.800,198029.400,192551.300,199468.000,187966.900,0.000
187451.300,178972.300,364487.200,424122.000,209207.200,194210.900,202482.700,189991.500,0.000
183991.400,174575.100,361760.100,416967.800,196896.200,190631.200,196815.500,184368.200,0.000
180829.900,169947.100,359129.800,408231.400,179386.300,187079.300,190851.500,179427.100,0.000
182117.200,171238.600,359851.000,409241.400,180416.300,188263.500,192534.500,181666.300,0.000
186038.800,176576.900,362670.100,417970.000,198012.700,192530.300,199445.900,187951.600,0.000
187410.600,178940.300,363664.200,422550.300,209119.700,194171.000,202439.000,189960.700,0.000
183971.200,174560.100,360961.600,415445.200,196848.500,190612.200,196794.400,184356.100,0.000
180832.700,169954.700,358352.400,406781.300,179434.400,187083.200,190855.500,179435.800,0.000
182127.500,171252.500,359081.700,407829.300,180491.300,188274.600,192545.000,181674.000,0.000
186029.400,176572.600,361896.300,416540.100,198003.200,192517.900,199432.600,187935.400,0.000
187387.300,178920.700,362894.100,421106.200,209029.600,194133.100,202402.200,189929.700,0.000
183965.100,174553.700,360213.800,414050.700,196797.900,190595.800,196778.400,184346.400,0.000
180858.200,169975.300,357631.900,405459.200,179457.500,187101.000,190872.800,179452.900,0.000
182154.000,171277.100,358373.600,406540.300,180517.700,188299.600,192564.800,181693.000,0.000
186025.800,176571.900,361182.200,415237.200,197976.700,192518.300,199423.300,187933.200,0.000
187359.400,178899.700,362176.600,419782.200,208950.900,194107.400,202368.100,189909.200,0.000
183947.400,174541.700,359507.400,412753.500,196721.100,190578.700,196758.500,184339.400,0.000
180865.600,169987.700,356942.300,404229.400,179440.200,187113.500,190892.800,179475.000,0.000
182163.400,171290.500,357689.700,405335.800,180528.800,188313.100,192590.300,181714.400,0.000
186010.800,176559.400,360493.300,413993.800,197940.200,192492.700,199402.400,187913.900,0.000
187324.700,178866.200,361484.700,418501.500,208859.900,194061.900,202317.500,189869.500,0.000
183929.500,174524.600,358831.900,411508.400,196652.200,190557.100,196736.200,184326.000,0.000
180877.800,170002.900,356290.800,403057.900,179459.000,187130.000,190916.200,179494.600,0.000
182179.200,171308.800,357043.500,404181.300,180572.900,188328.600,192609.800,181724.300,0.000
185988.200,176541.400,359835.100,412787.900,197900.200,192472.800,199376.900,187887.000,0.000
187285.500,178834.300,360827.900,417273.000,208763.800,194021.800,202270.300,189833.500,0.000
183921.000,174518.500,358197.800,410330.600,196627.900,190539.200,196721.400,184320.000,0.000
180908.000,170022.900,355683.300,401949.900,179546.500,187148.800,190941.900,179520.200,0.000
182199.300,171319.000,356438.900,403080.600,180662.600,188344.400,192629.000,181740.300,0.000
185978.000,176528.100,359220.500,411648.100,197890.800,192456.400,199362.000,187873.200,0.000
187253.200,178799.200,360209.700,416103.600,208663.900,193985.100,202231.100,189804.100,0.000
183906.500,174502.000,357597.200,409217.000,196599.400,190531.500,196712.300,184320.600,0.000
180923.800,170041.900,355101.700,400909.900,179635.900,187170.300,190966.300,179546.600,0.000
182216.300,171341.200,355862.800,402058.500,180752.300,188365.800,192652.300,181761.100,0.000
185960.400,176515.800,358632.900,410587.800,197860.700,192444.000,199347.600,187862.100,0.000
187217.000,178770.100,359619.200,415030.700,208566.500,193955.000,202201.700,189784.000,0.000
183895.700,174497.000,357022.300,408193.600,196561.800,190522.300,196705.000,184323.200,0.000
180937.600,170060.400,354546.900,399947.500,179678.300,187189.900,190987.000,179570.500,0.000
182225.000,171356.400,355311.000,401112.700,180788.200,188379.600,192669.600,181775.900,0.000
185939.600,176501.100,358070.000,409604.800,197816.300,192424.700,199324.500,187841.900,0.000
187181.700,178737.800,359052.600,414018.200,208460.900,193912.300,202151.200,189744.400,0.000
183896.500,174498.800,356484.200,407235.500,196512.800,190517.300,196696.700,184321.300,0.000
180974.400,170097.000,354034.400,399059.900,179702.400,187231.500,191030.600,179607.100,0.000
182256.700,171390.300,354803.400,400231.100,180821.700,188414.300,192705.000,181804.100,0.000
185949.600,176516.300,357560.500,408686.500,197809.200,192431.700,199327.700,187846.000,0.000
187180.500,178744.900,358548.700,413078.900,208419.200,193908.500,202138.100,189740.000,0.000
183908.900,174520.300,355995.300,406333.000,196503.800,190529.900,196710.400,184340.000,0.000
181003.900,170133.900,353551.100,398202.800,179748.600,187253.000,191066.400,179639.100,0.000
182263.100,171401.000,354299.100,399355.800,180846.600,188418.000,192718.400,181811.000,0.000
185906.500,176476.800,357022.900,407742.400,197743.500,192389.200,199286.700,187805.500,0.000
187111.600,178677.500,357990.900,412095.000,208295.300,193835.100,202065.000,189676.900,0.000
183859.200,174470.000,355446.500,405390.200,196427.500,190480.600,196666.700,184302.200,0.000
180981.900,170111.800,353024.900,397322.500,179758.100,187238.200,191060.800,179632.400,0.000
182261.000,171396.400,353797.700,398505.400,180882.200,188413.300,192720.300,181809.800,0.000
185910.100,176473.800,356538.300,406880.700,197726.500,192377.600,199276.500,187794.500,0.000
187111.600,178673.900,357524.100,411233.600,208236.300,193825.900,202053.600,189669.900,0.000
183882.900,174488.400,355002.600,404581.500,196434.600,190496.400,196684.700,184324.200,0.000
181032.800,170153.900,352598.200,396570.800,179848.800,187288.500,191111.100,179675.800,0.000
182299.900,171429.300,353367.700,397752.300,180962.200,188462.900,192766.300,181843.900,0.000
185908.900,176473.000,356090.200,406081.100,197721.900,192382.600,199273.800,187791.100,0.000
187098.500,178659.600,357067.700,410407.400,208175.800,193811.900,202028.200,189651.100,0.000
183892.500,174498.100,354563.900,403792.000,196421.200,190499.600,196686.200,184331.600,0.000
181061.200,170185.000,352176.200,395832.900,179913.100,187316.200,191146.100,179710.700,0.000
182320.400,171453.400,352943.000,397013.800,181022.000,188476.100,192789.200,181863.300,0.000
185897.800,176464.400,355651.100,405302.400,197701.400,192374.300,199264.700,187778.900,0.000
187081.700,178644.500,356628.900,409615.700,208111.100,193787.900,202004.300,189628.000,0.000
183893.400,174496.000,354134.700,403030.200,196403.900,190498.800,196683.600,184331.400,0.000
181075.000,170195.600,351753.400,395104.600,179964.800,187335.900,191166.200,179731.500,0.000
182335.300,171464.600,352527.300,396298.800,181087.700,188505.300,192816.100,181886.500,0.000
185895.500,176458.500,355231.900,404555.400,197690.700,192364.500,199253.800,187770.800,0.000
187059.500,178616.000,356203.600,408837.800,208029.200,193753.400,201967.900,189601.000,0.000
183888.100,174484.800,353722.500,402289.000,196375.100,190489.100,196676.900,184332.200,0.000
181097.600,170211.200,351360.100,394423.600,180034.600,187359.800,191198.200,179762.800,0.000
182348.000,171472.400,352128.100,395615.900,181148.300,188514.200,192831.700,181902.200,0.000
185886.800,176447.200,354824.900,403839.300,197670.700,192359.800,199243.300,187764.900,0.000
187036.400,178592.400,355792.300,408097.600,207949.800,193736.700,201939.300,189585.800,0.000
183889.100,174485.100,353327.400,401594.100,196353.700,190495.300,196675.200,184341.200,0.000
181122.100,170235.600,350979.300,393784.900,180096.500,187388.800,191224.700,179791.900,0.000
182359.500,171487.000,351740.800,394977.200,181202.700,188537.300,192850.700,181918.600,0.000
185868.600,176434.500,354420.600,403151.600,197639.300,192343.100,199221.400,187742.900,0.000
187009.700,178570.700,355386.100,407390.800,207873.200,193705.000,201903.000,189552.900,0.000
183884.100,174482.100,352936.200,400930.100,196318.000,190489.400,196669.800,184336.300,0.000
181146.400,170261.600,350610.200,393183.900,180127.500,187419.100,191259.500,179816.900,0.000
182378.700,171510.000,351374.300,394378.600,181232.100,188559.000,192877.100,181933.400,0.000
185859.600,176427.500,354044.100,402504.800,197606.000,192332.600,199209.400,187728.900,0.000
186984.900,178546.600,355006.400,406716.400,207800.000,193680.000,201872.300,189530.800,0.000
183879.100,174484.500,352572.300,400300.900,196296.600,190484.900,196666.800,184339.900,0.000
181165.100,170287.900,350260.400,392601.800,180158.200,187441.800,191289.300,179842.800,0.000
182394.400,171530.900,351025.700,393796.900,181259.400,188580.300,192901.000,181952.200,0.000
185844.400,176416.900,353680.300,401876.600,197575.000,192322.700,199194.600,187715.800,0.000
186958.700,178524.000,354636.000,406059.700,207722.900,193654.300,201834.700,189504.600,0.000
183880.800,174483.600,352218.200,399682.400,196262.500,190490.800,196662.400,184343.300,0.000
181190.900,170310.600,349921.600,392040.800,180219.300,187477.000,191322.800,179874.900,0.000
182411.700,171547.000,350684.800,393233.500,181331.000,188608.900,192927.800,181972.300,0.000
185833.700,176407.300,353327.300,401263.400,197566.100,192312.500,199182.600,187701.800,0.000
186937.400,178502.000,354282.800,405422.100,207659.600,193625.700,201808.800,189479.800,0.000
183879.200,174476.300,351880.700,399081.100,196257.400,190487.800,196665.300,184345.100,0.000
181217.300,170328.900,349597.300,391489.400,180309.400,187502.200,191357.100,179902.400,0.000
182436.500,171564.600,350359.600,392684.500,181426.300,188627.300,192955.300,181992.700,0.000
185825.400,176392.600,352987.000,400668.200,197560.200,192300.200,199170.700,187690.700,0.000
186912.400,178472.200,353937.000,404798.500,207577.200,193598.400,201778.900,189455.900,0.000
183877.000,174471.800,351546.800,398503.600,196247.900,190486.600,196667.800,184350.200,0.000
181232.200,170341.800,349273.300,390956.500,180381.000,187521.000,191381.400,179923.100,0.000
182446.900,171574.500,350032.800,392152.300,181486.600,188642.700,192970.900,182002.800,0.000
185812.400,176384.600,352653.100,400102.700,197536.000,192288.000,199156.400,187676.800,0.000
186883.200,178448.400,353597.700,404207.200,207486.900,193568.200,201743.500,189429.100,0.000
183876.300,174470.900,351222.500,397949.500,196206.500,190477.400,196656.100,184345.000,0.000
181262.600,170371.800,348967.200,390468.800,180442.200,187550.300,191412.600,179949.100,0.000
182460.500,171592.100,349723.500,391665.400,181546.200,188665.100,192997.800,182019.400,0.000
185791.800,176371.000,352328.200,399561.500,197502.600,192273.400,199141.600,187659.700,0.000
186850.000,178423.900,353266.900,403640.200,207401.400,193537.900,201707.700,189399.800,0.000
183867.200,174468.000,350906.200,397423.000,196168.800,190475.300,196649.400,184340.900,0.000
181287.800,170399.100,348674.600,390003.500,180483.300,187582.600,191445.200,179975.700,0.000
182487.600,171621.400,349434.100,391207.500,181603.900,188691.400,193025.300,182039.500,0.000
185783.200,176365.800,352021.600,399049.400,197490.500,192262.700,199126.300,187646.100,0.000
186820.500,178392.700,352952.000,403080.900,207319.200,193501.000,201665.000,189369.200,0.000
183867.100,174458.600,350607.100,396909.300,196138.400,190468.000,196640.700,184340.200,0.000
181308.300,170409.100,348382.900,389549.800,180530.800,187604.900,191469.200,179994.000,0.000
182499.400,171626.600,349136.800,390752.600,181651.100,188709.000,193045.700,182050.600,0.000
185760.500,176343.300,351709.300,398534.700,197454.800,192244.300,199108.400,187629.000,0.000
186782.300,178357.700,352636.400,402528.400,207219.100,193466.500,201629.400,189343.100,0.000
183860.500,174451.300,350309.300,396403.900,196092.900,190455.700,196633.000,184337.200,0.000
181342.500,170441.100,348111.200,389120.900,180595.800,187633.800,191509.700,180025.500,0.000
182527.100,171653.700,348866.000,390323.900,181717.500,188730.800,193077.000,182071.600,0.000
185750.700,176334.800,351425.800,398041.700,197431.700,192231.100,199094.400,187613.500,0.000
186755.500,178332.700,352346.700,401998.700,207141.800,193428.900,201589.000,189312.000,0.000
183867.300,174453.400,350034.700,395922.300,196070.500,190453.100,196629.700,184339.000,0.000
181379.800,170469.500,347849.800,388699.500,180652.400,187665.500,191544.000,180055.300,0.000
182551.400,171674.600,348603.800,389900.200,181776.500,188760.000,193104.500,182092.500,0.000
185736.600,176326.000,351148.000,397562.300,197403.100,192221.800,199079.900,187600.100,0.000
186722.500,178308.700,352062.000,401482.800,207046.100,193390.300,201547.500,189280.700,0.000
183859.900,174458.100,349769.300,395462.100,196055.100,190449.700,196630.700,184343.800,0.000
181406.100,170506.400,347603.400,388301.900,180736.500,187701.100,191585.400,180087.500,0.000
182567.400,171702.400,348348.700,389490.300,181846.800,188781.900,193131.400,182110.200,0.000
185716.900,176316.700,350874.000,397093.200,197379.000,192204.500,199060.900,187586.000,0.000
186690.100,178282.500,351784.400,400981.400,206959.700,193360.900,201509.300,189257.300,0.000
183868.200,174467.900,349515.200,395012.700,196045.300,190456.800,196631.100,184352.500,0.000
181446.400,170541.200,347362.900,387911.700,180833.800,187747.800,191626.500,180123.800,0.000
182594.700,171723.000,348101.800,389093.700,181933.000,188815.600,193156.300,182129.400,0.000
185715.400,176310.700,350613.300,396636.700,197351.100,192189.100,199037.200,187567.000,0.000
186671.400,178265.800,351519.800,400500.000,206880.300,193324.300,201472.500,189233.800,0.000
183868.000,174468.000,349261.100,394577.300,196035.900,190455.200,196631.900,184359.100,0.000
181483.200,170577.500,347128.700,387539.500,180922.400,187780.400,191663.300,180154.200,0.000
182623.900,171752.800,347864.100,388716.300,182006.200,188839.800,193185.200,182144.800,0.000
185695.900,176298.300,350352.400,396197.900,197318.700,192172.200,199024.500,187546.500,0.000
186635.800,178236.800,351251.300,400029.800,206783.400,193291.700,201440.700,189203.100,0.000
183871.400,174471.700,349013.600,394168.300,196017.400,190459.800,196638.900,184366.400,0.000
181513.100,170603.200,346893.600,387193.100,180983.000,187816.700,191705.100,180186.000,0.000
182640.600,171769.000,347623.400,388362.100,182053.500,188867.300,193214.500,182165.800,0.000
185675.100,176284.400,350098.000,395782.800,197289.300,192160.500,199007.700,187535.100,0.000
186595.600,178204.400,350989.800,399571.800,206692.100,193254.400,201394.900,189175.000,0.000
183862.700,174467.700,348767.300,393757.800,195979.800,190453.500,196630.200,184367.400,0.000
181541.000,170633.500,346664.500,386849.600,181029.100,187849.500,191740.300,180219.300,0.000
182659.400,171790.000,347388.500,388010.100,182090.400,188881.700,193233.500,182180.700,0.000
185656.500,176268.500,349844.700,395364.500,197241.500,192130.500,198976.800,187510.800,0.000
186560.500,178176.100,350731.300,399118.000,206601.300,193204.800,201345.300,189140.700,0.000
183859.000,174468.900,348527.000,393360.200,195950.300,190441.200,196622.800,184368.300,0.000
181568.900,170664.000,346443.800,386520.600,181080.800,187887.000,191781.500,180251.800,0.000
182682.700,171818.600,347168.900,387680.200,182146.700,188917.300,193269.400,182202.800,0.000
185632.700,176257.300,349602.200,394963.500,197210.400,192109.000,198957.600,187488.200,0.000
186516.000,178140.800,350481.500,398671.400,206497.600,193155.100,201297.000,189099.800,0.000
183862.400,174470.200,348303.500,392972.200,195931.600,190436.300,196626.300,184372.000,0.000
181606.200,170693.100,346233.100,386192.900,181164.000,187916.900,191822.500,180280.600,0.000
182706.900,171833.800,346950.300,387338.800,182219.300,188939.400,193295.600,182216.400,0.000
185629.100,176245.600,349373.300,394561.400,197185.000,192095.300,198942.000,187473.800,0.000
186499.300,178121.900,350249.500,398243.200,206418.200,193127.300,201266.100,189081.400,0.000
183875.600,174477.900,348088.000,392595.300,195933.000,190446.600,196632.400,184389.500,0.000
181658.600,170735.700,346036.000,385886.300,181288.800,187973.400,191873.800,180334.300,0.000
182748.700,171867.100,346738.400,387022.300,182329.800,188984.500,193333.200,182252.800,0.000
185629.700,176245.700,349137.100,394183.400,197172.400,192091.900,198932.000,187471.000,0.000
186478.700,178103.500,350002.900,397832.700,206333.300,193096.200,201233.800,189065.200,0.000
183881.400,174482.900,347852.300,392233.300,195926.600,190449.900,196635.000,184400.300,0.000
181691.400,170762.700,345812.900,385576.200,181384.700,188013.900,191909.800,180362.100,0.000
182767.600,171884.800,346524.600,386707.900,182413.000,189016.100,193360.800,182268.700,0.000
185604.500,176226.500,348916.800,393809.900,197145.000,192079.500,198916.500,187452.000,0.000
186437.200,178069.600,349782.300,397420.100,206231.500,193058.100,201193.300,189032.200,0.000
183885.100,174485.100,347654.700,391877.100,195897.000,190452.200,196634.700,184402.400,0.000
181739.300,170799.100,345633.600,385296.500,181448.000,188065.200,191958.200,180397.900,0.000
182804.400,171912.500,346336.400,386425.500,182466.100,189054.100,193394.800,182287.800,0.000
185596.200,176220.700,348707.200,393462.500,197113.700,192063.000,198902.000,187435.800,0.000
186406.700,178046.700,349561.700,397029.000,206141.600,193014.400,201155.900,189005.500,0.000
183876.100,174476.900,347441.700,391531.600,195853.200,190436.900,196627.400,184399.500,0.000
181764.000,170818.200,345434.800,385021.700,181479.600,188086.100,191985.800,180416.600,0.000
182819.900,171924.300,346133.800,386146.000,182493.700,189072.100,193417.200,182301.700,0.000
185568.600,176198.500,348485.700,393111.000,197064.600,192040.400,198881.100,187422.400,0.000
186357.700,178008.500,349334.200,396640.100,206053.700,192973.200,201117.500,188982.600,0.000
183869.000,174473.900,347235.500,391198.900,195822.000,190437.000,196628.700,184403.400,0.000
181792.400,170844.300,345246.200,384755.300,181523.800,188126.200,192027.500,180442.900,0.000
182840.800,171945.200,345942.700,385874.200,182536.700,189100.300,193448.600,182317.700,0.000
185555.400,176190.000,348281.500,392775.900,197042.600,192027.400,198869.100,187408.300,0.000
186324.200,177983.900,349121.200,396259.200,205982.600,192935.800,201078.000,188953.700,0.000
183862.800,174469.000,347036.700,390863.300,195798.000,190430.300,196622.100,184400.400,0.000
181817.300,170864.000,345063.400,384479.400,181568.800,188153.300,192055.900,180463.200,0.000
182858.400,171959.300,345755.300,385590.100,182583.200,189121.800,193465.900,182324.600,0.000
185539.000,176177.900,348079.300,392438.600,197031.200,192009.800,198846.400,187388.900,0.000
186298.000,177961.600,348919.300,395897.700,205929.000,192901.900,201042.200,188930.200,0.000
183870.100,174473.800,346852.400,390547.500,195794.900,190430.300,196621.500,184407.800,0.000
181853.800,170890.500,344887.100,384208.200,181635.700,188182.400,192083.200,180487.500,0.000
182886.500,171977.900,345575.300,385315.300,182647.600,189146.900,193487.900,182340.800,0.000
185534.600,176171.500,347885.600,392120.300,197027.800,192000.100,198836.600,187379.500,0.000
186276.300,177942.700,348721.100,395549.000,205877.100,192867.000,201012.200,188909.600,0.000
183873.400,174475.400,346663.300,390226.100,195795.000,190421.600,196616.500,184404.800,0.000
181876.100,170904.400,344705.100,383925.100,181715.500,188212.800,192111.400,180505.800,0.000
182895.000,171982.900,345388.400,385022.900,182727.800,189168.700,193506.900,182348.100,0.000
185511.300,176152.900,347688.800,391783.500,197022.900,191982.500,198820.600,187361.700,0.000
186233.800,177910.600,348513.900,395183.000,205813.400,192826.400,200978.000,188879.800,0.000
183856.300,174459.800,346464.500,389889.400,195792.300,190407.100,196604.600,184394.800,0.000
181894.700,170918.300,344524.300,383635.400,181807.200,188230.200,192127.100,180517.100,0.000
182909.400,171993.200,345206.400,384734.500,182813.500,189179.500,193517.700,182354.700,0.000
185499.600,176145.400,347498.500,391462.200,197024.400,191967.000,198809.800,187348.900,0.000
186204.600,177889.000,348320.800,394839.300,205747.800,192796.200,200951.200,188858.200,0.000
183849.000,174453.800,346284.400,389583.700,195770.500,190404.300,196601.300,184397.300,0.000
181919.000,170935.500,344356.000,383386.200,181853.400,188265.100,192154.900,180541.700,0.000
182932.100,172009.100,345034.600,384494.200,182845.100,189207.500,193540.100,182371.600,0.000
185488.500,176135.300,347312.500,391187.000,196983.600,191963.000,198801.200,187345.500,0.000
186180.500,177870.100,348131.900,394548.400,205670.600,192780.300,200930.000,188849.400,0.000
183843.700,174442.500,346098.100,389319.400,195702.900,190398.000,196593.000,184395.500,0.000
181939.500,170943.800,344179.000,383166.000,181814.700,188276.600,192170.000,180555.600,0.000
182946.700,172018.300,344859.900,384278.300,182817.500,189216.000,193551.500,182380.700,0.000
185476.700,176130.100,347127.600,390925.900,196941.900,191943.100,198783.400,187328.300,0.000
186153.700,177851.300,347939.800,394249.300,205612.500,192735.900,200889.100,188818.000,0.000
183836.800,174442.400,345919.500,389050.600,195664.000,190385.500,196579.800,184386.000,0.000
181950.100,170956.300,344010.200,382934.300,181797.800,188295.900,192185.300,180563.700,0.000
182961.400,172035.500,344692.400,384044.900,182815.500,189238.500,193569.300,182390.600,0.000
185463.700,176121.500,346948.300,390651.400,196935.000,191936.700,198774.200,187321.300,0.000
186129.500,177832.700,347760.900,393949.100,205598.500,192718.700,200871.700,188805.700,0.000
183837.900,174441.800,345756.400,388770.700,195662.800,190386.500,196582.700,184389.000,0.000
181983.100,170985.000,343865.500,382694.200,181847.500,188322.100,192218.600,180588.900,0.000
182994.100,172061.200,344551.600,383803.900,182881.900,189268.400,193603.600,182414.200,0.000
185481.500,176137.500,346808.000,390377.800,196967.000,191950.600,198788.600,187335.300,0.000
186138.000,177848.000,347620.500,393660.400,205608.300,192720.600,200878.900,188819.900,0.000
183862.700,174467.700,345619.100,388500.200,195706.000,190405.500,196604.400,184414.100,0.000
182016.900,171013.900,343725.200,382444.500,181941.200,188359.700,192252.700,180620.300,0.000
182997.000,172061.100,344386.600,383529.500,182954.000,189274.300,193608.800,182418.000,0.000
185447.600,176105.000,346613.100,390054.300,196946.300,191912.900,198754.700,187301.600,0.000
186080.300,177792.000,347403.600,393301.100,205515.200,192658.300,200818.900,188764.000,0.000
183803.600,174409.500,345399.700,388156.800,195656.000,190356.500,196552.500,184367.100,0.000
181977.500,170965.500,343517.400,382133.400,181957.800,188332.200,192216.700,180587.400,0.000
182987.800,172044.000,344206.100,383249.900,182987.700,189273.400,193598.800,182408.000,0.000
185438.200,176096.900,346448.400,389784.900,196941.700,191909.300,198748.400,187295.800,0.000
186073.600,177787.100,347251.300,393041.800,205482.100,192653.400,200814.300,188759.800,0.000
183827.800,174430.900,345268.200,387934.100,195660.600,190373.800,196570.900,184387.500,0.000
182022.600,171008.600,343393.200,381941.600,181995.900,188368.400,192250.900,180620.800,0.000
183016.000,172072.500,344068.600,383052.300,183001.900,189300.200,193623.300,182427.100,0.000
185445.700,176105.500,346298.600,389565.400,196922.900,191919.000,198756.500,187300.900,0.000
186073.600,177790.300,347096.300,392810.100,205455.700,192651.400,200814.700,188762.200,0.000
183827.100,174433.700,345109.500,387711.100,195638.000,190376.900,196580.900,184395.200,0.000
182029.800,171014.800,343238.300,381729.600,181969.400,188387.500,192273.300,180634.300,0.000
183015.900,172072.800,343911.800,382831.700,182975.000,189312.800,193638.800,182435.000,0.000
185430.300,176095.600,346139.000,389321.900,196898.200,191908.000,198750.700,187295.900,0.000
186052.900,177776.000,346939.200,392549.800,205432.200,192637.300,200803.300,188756.800,0.000
183826.900,174436.400,344961.500,387466.800,195637.400,190377.800,196587.100,184404.800,0.000
182037.000,171020.300,343089.800,381497.300,181978.900,188388.400,192279.900,180640.300,0.000
183017.800,172070.700,343759.200,382591.800,182978.500,189309.200,193637.900,182432.800,0.000
185432.100,176097.000,345987.300,389066.900,196898.800,191903.800,198748.900,187294.100,0.000
186048.000,177774.800,346784.800,392283.300,205429.000,192622.300,200795.800,188751.900,0.000
183828.600,174439.500,344810.900,387213.400,195644.300,190369.300,196581.800,184399.500,0.000
182051.900,171031.200,342948.000,381270.600,182016.300,188397.900,192291.000,180646.100,0.000
183032.500,172077.900,343617.800,382368.300,183016.700,189320.100,193647.000,182439.100,0.000
185428.200,176086.500,345834.800,388821.800,196901.400,191896.700,198741.300,187287.000,0.000
186045.500,177770.000,346636.800,392041.700,205426.800,192618.700,200794.000,188750.200,0.000
183830.500,174438.300,344666.100,386986.500,195656.700,190374.500,196587.300,184404.300,0.000
182058.200,171032.800,342802.800,381053.300,182029.900,188401.900,192296.700,180650.700,0.000
183037.000,172082.400,343473.500,382149.200,183020.500,189317.600,193650.100,182440.400,0.000
185422.500,176084.100,345691.100,388594.100,196893.800,191894.400,198738.800,187285.700,0.000
186029.200,177757.700,346489.600,391806.200,205407.500,192610.700,200783.400,188746.100,0.000
183833.700,174439.400,344526.800,386765.600,195649.500,190373.800,196586.900,184408.500,0.000
182063.900,171035.100,342664.300,380835.200,182025.400,188408.800,192299.900,180656.100,0.000
183038.100,172083.300,343334.100,381927.200,183018.200,189324.000,193652.300,182442.500,0.000
185418.100,176081.600,345552.000,388369.000,196894.800,191887.000,198733.700,187282.500,0.000
186021.600,177750.300,346350.300,391574.500,205400.300,192599.700,200773.900,188735.600,0.000
183821.600,174428.900,344386.100,386529.400,195638.700,190365.300,196577.500,184399.800,0.000
182073.400,171047.000,342537.500,380616.500,182041.700,188419.100,192310.300,180665.600,0.000
183049.900,172098.400,343206.200,381712.300,183046.800,189333.500,193662.100,182450.500,0.000
185417.400,176088.300,345414.600,388143.300,196907.600,191884.200,198729.300,187274.400,0.000
186019.300,177755.200,346208.700,391342.200,205401.300,192592.300,200764.600,188724.500,0.000
183823.800,174435.800,344246.800,386296.700,195647.000,190357.300,196568.500,184392.300,0.000
182072.500,171047.400,342391.300,380381.800,182064.300,188405.100,192296.200,180656.500,0.000
183055.300,172099.000,343063.100,381482.000,183073.100,189325.800,193651.900,182446.200,0.000
185421.600,176085.900,345275.500,387913.800,196912.700,191889.800,198728.900,187276.300,0.000
186011.400,177747.700,346065.900,391105.100,205383.300,192591.400,200760.000,188721.900,0.000
183816.400,174432.900,344105.800,386068.800,195648.200,190360.200,196571.000,184395.000,0.000
182072.000,171048.600,342255.700,380170.200,182086.600,188415.100,192305.200,180664.500,0.000
183050.700,172095.300,342925.200,381270.700,183077.200,189330.300,193657.300,182448.500,0.000
185417.900,176082.700,345136.300,387700.600,196896.100,191885.400,198731.500,187274.900,0.000
186013.000,177745.000,345931.600,390896.800,205361.000,192587.300,200763.300,188723.800,0.000
183830.000,174437.000,343978.900,385875.900,195635.500,190367.900,196580.700,184404.800,0.000
182085.600,171055.400,342130.200,379985.600,182075.700,188423.800,192315.800,180673.300,0.000
183060.800,172101.100,342799.400,381086.300,183058.700,189338.700,193661.800,182451.800,0.000
185417.500,176083.500,345005.400,387502.900,196868.800,191884.500,198721.400,187269.900,0.000
186004.300,177745.900,345797.600,390698.500,205350.800,192583.000,200749.900,188719.900,0.000
183818.000,174435.900,343840.800,385682.100,195622.800,190364.200,196571.400,184404.000,0.000
182082.300,171061.600,341996.800,379802.000,182059.900,188432.300,192321.300,180681.600,0.000
183058.200,172107.500,342668.700,380901.000,183052.400,189350.800,193673.900,182462.000,0.000
185411.600,176083.900,344874.100,387307.600,196870.600,191888.800,198726.800,187275.600,0.000
185999.600,177743.500,345664.900,390491.100,205346.700,192573.300,200741.400,188716.000,0.000
183818.700,174434.500,343714.100,385478.900,195620.400,190361.600,196568.800,184403.100,0.000
182087.800,171064.000,341874.200,379608.300,182070.000,188436.200,192324.800,180685.800,0.000
183061.500,172109.900,342540.400,380702.400,183065.300,189346.500,193669.900,182460.100,0.000
185409.000,176082.800,344741.300,387098.900,196877.900,191881.200,198719.800,187270.200,0.000
185994.400,177738.500,345531.200,390277.500,205343.200,192572.300,200740.800,188715.200,0.000
183821.400,174437.000,343582.500,385273.400,195624.400,190366.300,196576.400,184410.000,0.000
182104.200,171077.700,341746.000,379417.600,182103.500,188446.800,192340.400,180700.500,0.000
183076.500,172122.200,342416.500,380518.300,183107.800,189360.700,193687.100,182475.500,0.000
185410.600,176085.500,344614.100,386902.700,196894.200,191880.700,198723.200,187273.900,0.000
185987.600,177733.600,345401.900,390069.500,205336.800,192563.100,200736.200,188710.300,0.000
183818.600,174431.300,343453.300,385067.900,195629.700,190358.300,196572.100,184404.600,0.000
182103.400,171070.700,341617.300,379221.600,182135.900,188447.000,192342.500,180698.000,0.000
183076.700,172116.800,342287.400,380324.000,183144.900,189357.200,193689.000,182473.800,0.000
185411.000,176079.100,344485.900,386702.800,196904.400,191875.300,198724.700,187272.100,0.000
185986.500,177726.000,345272.200,389864.200,205317.300,192552.800,200733.500,188706.900,0.000
183820.400,174429.000,343325.800,384875.600,195626.100,190357.200,196573.000,184407.700,0.000
182113.800,171078.300,341495.700,379048.400,182159.000,188459.100,192351.300,180706.800,0.000
183084.800,172124.600,342166.100,380154.200,183164.200,189370.300,193697.500,182482.300,0.000
185410.800,176082.900,344363.400,386521.200,196899.300,191879.400,198724.300,187274.400,0.000
185979.800,177725.700,345151.800,389675.400,205299.100,192556.500,200730.400,188709.100,0.000
183818.300,174427.100,343207.200,384693.600,195612.100,190366.200,196577.600,184410.200,0.000
182125.600,171083.500,341383.700,378884.300,182164.700,188471.600,192364.800,180715.700,0.000
183097.500,172130.600,342053.600,379990.800,183167.500,189378.000,193706.900,182488.600,0.000
185410.100,176080.300,344244.800,386343.200,196885.500,191878.700,198723.600,187273.500,0.000
185976.800,177721.800,345031.800,389490.300,205280.500,192545.700,200723.100,188702.600,0.000
183828.600,174435.500,343094.200,384517.300,195592.800,190359.900,196573.300,184405.900,0.000
182144.300,171098.100,341273.300,378720.600,182151.700,188474.800,192368.200,180715.000,0.000
183111.400,172141.400,341940.000,379828.400,183165.800,189381.700,193712.500,182488.000,0.000
185413.800,176082.400,344125.400,386168.900,196882.600,191875.800,198723.300,187269.900,0.000
185971.500,177716.800,344907.900,389302.100,205263.800,192540.300,200717.800,188696.800,0.000
183835.400,174440.900,342975.700,384340.200,195587.600,190362.900,196577.700,184407.900,0.000
182161.300,171112.300,341160.200,378558.500,182154.500,188486.500,192382.200,180721.500,0.000
183132.100,172160.100,341832.900,379668.800,183173.500,189399.800,193732.800,182500.500,0.000
185424.900,176094.400,344016.900,385991.900,196890.900,191881.900,198732.300,187276.300,0.000
185983.200,177725.300,344800.500,389113.700,205262.300,192544.000,200721.500,188702.300,0.000
183847.200,174447.000,342870.500,384161.600,195589.300,190373.700,196586.000,184418.400,0.000
182175.300,171120.100,341056.900,378391.100,182169.700,188504.800,192394.700,180735.300,0.000
183147.600,172168.300,341728.900,379499.300,183192.000,189414.400,193739.000,182509.100,0.000
185434.000,176096.700,343909.400,385813.500,196899.600,191892.400,198733.200,187279.600,0.000
185978.600,177718.500,344686.300,388925.500,205255.600,192549.900,200718.300,188698.300,0.000
183850.500,174448.800,342757.600,383976.500,195587.900,190383.900,196585.200,184416.700,0.000
182187.800,171133.900,340948.400,378217.700,182191.800,188519.700,192400.000,180741.000,0.000
183153.400,172180.200,341618.500,379328.700,183222.900,189427.800,193748.200,182516.200,0.000
185428.600,176097.700,343793.700,385631.100,196904.000,191893.300,198730.800,187277.600,0.000
185968.800,177714.600,344566.400,388733.000,205235.500,192538.700,200703.800,188688.400,0.000
183847.200,174451.600,342640.300,383791.200,195585.300,190373.000,196577.100,184411.200,0.000
182184.500,171137.200,340829.600,378037.100,182209.500,188510.400,192395.500,180737.300,0.000
183148.700,172179.600,341497.200,379145.800,183230.600,189415.800,193736.600,182506.400,0.000
185421.500,176096.300,343668.300,385445.700,196892.900,191880.700,198716.500,187264.200,0.000
185960.600,177711.900,344439.800,388549.300,205214.900,192530.300,200690.800,188677.500,0.000
183841.100,174448.800,342516.600,383614.000,195575.500,190374.400,196567.900,184409.700,0.000
182180.000,171137.100,340708.200,377869.100,182215.000,188517.800,192392.900,180742.900,0.000
183141.400,172178.500,341374.700,378979.600,183238.100,189421.900,193738.000,182514.200,0.000
185409.200,176089.500,343547.000,385272.100,196885.300,191877.300,198713.200,187266.800,0.000
185948.400,177703.100,344320.900,388368.700,205201.200,192523.200,200686.900,188679.800,0.000
183827.300,174438.000,342394.600,383432.400,195568.500,190361.700,196563.000,184406.900,0.000
182174.200,171129.300,340590.900,377694.700,182218.000,188511.800,192392.300,180739.300,0.000
183137.100,172170.400,341263.800,378806.600,183237.600,189419.000,193735.800,182506.300,0.000
185402.800,176080.000,343437.600,385093.900,196868.800,191873.700,198710.100,187257.700,0.000
185942.700,177696.500,344215.300,388191.500,205182.200,192510.800,200683.300,188670.100,0.000
183831.100,174441.200,342297.400,383272.400,195568.200,190360.100,196571.400,184407.100,0.000
182180.600,171133.800,340491.700,377540.300,182221.800,188519.800,192406.000,180742.700,0.000
183140.100,172172.800,341159.200,378647.800,183235.700,189424.200,193745.600,182508.600,0.000
185398.700,176082.000,343332.500,384925.700,196864.400,191871.300,198710.900,187257.500,0.000
185930.800,177692.600,344107.400,388015.200,205173.800,192515.500,200683.600,188670.700,0.000
183822.700,174435.700,342188.800,383097.900,195554.600,190360.800,196566.500,184400.700,0.000
182181.200,171134.200,340387.200,377378.900,182216.200,188515.200,192402.900,180731.800,0.000
183144.300,172173.400,341057.000,378488.700,183231.500,189417.600,193746.200,182500.100,0.000
185396.000,176075.300,343225.500,384760.800,196856.300,191865.500,198713.500,187253.800,0.000
185933.300,177692.000,344003.100,387852.900,205170.800,192509.200,200684.600,188670.000,0.000
183835.200,174442.800,342088.500,382944.000,195555.800,190362.200,196573.500,184403.600,0.000
182191.200,171136.900,340285.800,377227.200,182214.600,188516.300,192407.300,180735.200,0.000
183146.200,172172.500,340951.200,378334.000,183233.700,189418.500,193746.100,182502.900,0.000
185394.300,176071.400,343119.200,384598.100,196862.600,191862.400,198710.200,187255.700,0.000
185924.000,177681.300,343892.300,387679.100,205168.500,192498.700,200674.500,188666.900,0.000
183820.800,174429.400,341973.900,382770.900,195552.700,190351.600,196562.600,184397.700,0.000
182179.300,171127.300,340168.700,377054.300,182203.600,188508.200,192394.100,180723.400,0.000
183136.600,172165.800,340836.800,378162.400,183224.000,189409.900,193733.400,182489.800,0.000
185384.100,176066.400,343008.700,384430.400,196861.500,191859.300,198705.600,187250.200,0.000
185912.000,177673.800,343779.300,387509.600,205164.700,192496.700,200675.000,188663.000,0.000
183813.600,174422.400,341863.100,382597.500,195543.900,190343.400,196556.100,184389.200,0.000
182178.500,171123.600,340064.500,376885.700,182211.300,188503.600,192392.300,180721.200,0.000
183139.200,172164.700,340736.100,377992.800,183231.900,189410.000,193734.500,182491.500,0.000
185387.800,176066.800,342905.800,384257.100,196857.000,191856.700,198701.900,187249.600,0.000
185919.000,177680.500,343681.600,387347.200,205174.100,192493.300,200673.800,188666.600,0.000
183811.300,174425.400,341762.000,382436.400,195561.700,190342.200,196557.100,184393.300,0.000
182171.300,171121.700,339960.600,376720.200,182221.600,188497.500,192386.200,180719.100,0.000
183129.100,172160.800,340628.500,377830.400,183237.300,189399.500,193724.500,182486.800,0.000
185382.600,176065.900,342800.800,384105.000,196861.900,191847.000,198694.900,187244.600,0.000
185915.300,177679.900,343579.200,387200.500,205173.800,192491.900,200670.500,188661.800,0.000
183815.700,174431.100,341665.900,382297.800,195565.300,190345.000,196559.700,184393.800,0.000
182172.200,171126.400,339862.700,376579.200,182215.800,188495.500,192384.700,180718.200,0.000
183129.800,172164.700,340530.400,377687.400,183220.200,189393.200,193719.300,182484.300,0.000
185382.200,176069.300,342703.500,383969.600,196851.700,191849.800,198696.600,187247.000,0.000
185918.100,177685.500,343480.300,387070.000,205174.800,192497.800,200676.500,188668.000,0.000
183814.000,174432.500,341566.800,382160.500,195557.700,190344.400,196559.500,184396.600,0.000
182167.700,171125.900,339765.800,376435.400,182192.600,188489.700,192383.600,180718.300,0.000
183121.400,172156.600,340429.600,377537.000,183187.100,189390.900,193719.700,182484.900,0.000
185378.200,176063.200,342603.000,383820.300,196833.300,191845.900,198694.800,187245.000,0.000
185919.200,177685.300,343386.600,386930.900,205186.600,192500.800,200680.300,188667.700,0.000
183812.900,174434.400,341470.800,382018.900,195562.300,190348.700,196563.000,184396.500,0.000
182160.400,171121.800,339665.100,376281.400,182172.400,188481.000,192377.700,180712.900,0.000
183114.500,172156.500,340333.400,377385.300,183169.300,189384.700,193714.800,182478.400,0.000
185376.200,176063.700,342509.200,383677.400,196831.500,191857.200,198702.000,187248.400,0.000
185921.600,177685.300,343289.100,386789.200,205192.100,192502.900,200684.400,188671.800,0.000
183814.100,174434.900,341375.300,381880.100,195577.300,190340.900,196568.000,184402.400,0.000
182150.100,171110.000,339565.400,376129.400,182168.000,188473.200,192375.200,180712.200,0.000
183106.000,172139.600,340230.300,377224.300,183157.700,189374.300,193707.400,182473.600,0.000
185376.600,176056.400,342407.200,383521.900,196832.900,191846.600,198697.500,187244.900,0.000
185921.200,177682.300,343189.300,386640.600,205205.000,192504.600,200689.300,188673.900,0.000
183801.800,174421.900,341270.800,381720.100,195573.900,190339.800,196562.800,184398.000,0.000
182146.400,171107.200,339465.000,375973.500,182168.700,188474.000,192372.800,180712.200,0.000
183107.800,172144.100,340135.900,377075.900,183164.200,189379.500,193714.000,182478.800,0.000
185376.300,176057.400,342313.800,383374.500,196833.900,191847.400,198699.900,187245.800,0.000
185930.400,177691.700,343102.900,386503.600,205216.000,192510.000,200695.100,188679.000,0.000
183813.300,174432.700,341185.200,381583.600,195589.600,190345.000,196569.700,184402.200,0.000
182146.500,171105.600,339375.100,375830.300,182179.300,188474.200,192373.700,180712.300,0.000
183103.600,172135.800,340042.200,376930.200,183164.400,189370.200,193704.300,182474.300,0.000
185381.900,176055.900,342222.000,383237.800,196832.400,191848.400,198699.900,187246.000,0.000
185935.300,177688.400,343009.800,386373.300,205218.300,192514.100,200702.200,188682.200,0.000
183821.000,174435.600,341096.500,381459.800,195605.400,190352.800,196583.100,184410.800,0.000
182162.500,171118.700,339292.800,375700.600,182185.400,188480.700,192383.900,180718.300,0.000
183126.300,172156.400,339967.700,376806.000,183168.600,189384.400,193719.500,182483.200,0.000
185405.900,176083.700,342159.100,383127.000,196852.600,191871.900,198724.400,187265.300,0.000
185965.700,177725.100,342957.000,386273.100,205254.400,192548.900,200734.600,188709.300,0.000
183848.600,174466.300,341037.800,381350.700,195632.700,190374.300,196603.000,184428.500,0.000
182173.900,171133.300,339218.400,375574.400,182192.800,188483.000,192387.000,180720.700,0.000
183112.700,172145.800,339870.700,376651.400,183147.800,189368.200,193704.200,182469.700,0.000
185369.200,176046.700,342035.200,382946.900,196813.200,191838.600,198693.800,187237.800,0.000
185917.300,177673.800,342815.300,386081.800,205210.000,192508.300,200698.200,188676.000,0.000
183799.800,174415.000,340896.900,381157.700,195581.900,190330.900,196564.300,184394.100,0.000
182129.100,171086.200,339088.100,375388.400,182138.900,188443.500,192347.000,180689.500,0.000
183089.000,172119.500,339760.800,376491.800,183117.000,189351.700,193683.300,182456.400,0.000
185372.500,176044.400,341946.900,382814.200,196815.900,191842.400,198692.400,187239.200,0.000
185938.700,177693.000,342747.900,385967.700,205233.500,192520.000,200707.600,188684.900,0.000
183822.500,174440.100,340839.000,381052.800,195615.200,190351.700,196582.300,184408.400,0.000
182148.700,171107.000,339023.800,375276.300,182155.500,188462.400,192364.000,180701.600,0.000
183104.100,172132.000,339686.300,376368.500,183117.800,189363.000,193690.900,182461.000,0.000
185388.000,176055.700,341869.800,382695.500,196825.900,191863.900,198705.500,187248.500,0.000
185944.700,177692.900,342660.300,385847.200,205250.500,192539.400,200717.700,188692.300,0.000
183820.000,174431.500,340742.700,380922.600,195613.000,190358.000,196580.900,184408.700,0.000
182144.400,171098.700,338931.100,375141.800,182142.500,188464.900,192360.800,180702.500,0.000
183103.500,172128.600,339597.800,376233.300,183107.300,189359.800,193689.000,182463.000,0.000
185386.100,176053.800,341781.200,382560.700,196828.900,191857.700,198703.700,187250.800,0.000
185947.400,177698.200,342576.300,385719.000,205268.800,192541.000,200720.500,188697.800,0.000
183829.200,174443.000,340663.300,380796.300,195630.800,190362.800,196586.500,184415.800,0.000
182151.900,171108.000,338849.500,375010.300,182148.300,188467.800,192364.800,180708.200,0.000
183100.100,172126.900,339512.100,376096.200,183106.400,189357.600,193685.500,182460.500,0.000
185386.200,176051.200,341698.100,382426.700,196828.300,191861.500,198702.600,187247.100,0.000
185946.000,177693.400,342490.400,385587.400,205273.600,192547.200,200722.200,188695.100,0.000
183818.800,174435.600,340571.700,380655.700,195636.500,190359.400,196579.700,184409.000,0.000
182139.500,171102.400,338756.300,374863.200,182149.200,188452.900,192348.300,180695.600,0.000
183097.500,172132.500,339426.100,375955.900,183111.700,189354.400,193679.800,182459.400,0.000
185388.200,176064.300,341616.800,382297.300,196840.500,191865.200,198706.800,187255.100,0.000
185954.600,177709.400,342413.000,385465.800,205285.000,192554.800,200732.400,188707.400,0.000
183835.000,174455.000,340498.100,380540.200,195655.400,190373.100,196595.900,184423.000,0.000
182151.600,171115.000,338682.100,374743.800,182167.700,188464.800,192362.100,180705.500,0.000
183097.700,172132.100,339340.800,375825.100,183113.000,189348.000,193678.200,182456.000,0.000
185388.400,176062.500,341530.100,382167.700,196835.500,191857.900,198704.200,187250.800,0.000
185956.500,177713.700,342331.700,385343.800,205295.400,192548.500,200734.900,188707.600,0.000
183827.500,174449.400,340414.000,380413.900,195657.400,190363.400,196595.700,184420.500,0.000
182145.500,171108.300,338594.700,374614.400,182158.700,188447.300,192351.800,180699.100,0.000
183099.600,172133.100,339259.500,375702.300,183108.700,189345.900,193677.200,182457.200,0.000
185389.900,176063.300,341449.400,382046.700,196837.400,191860.800,198709.200,187254.700,0.000
185956.400,177711.200,342246.000,385220.900,205295.100,192549.600,200738.200,188710.100,0.000
183823.200,174444.400,340327.200,380288.900,195649.200,190355.200,196591.000,184418.000,0.000
182140.700,171104.500,338509.400,374490.800,182144.500,188441.100,192349.600,180696.300,0.000
183098.300,172130.800,339174.200,375579.900,183092.000,189342.600,193676.000,182456.900,0.000
185391.600,176061.800,341365.100,381925.900,196830.600,191860.600,198708.400,187257.500,0.000
185955.400,177709.400,342163.600,385100.800,205298.500,192550.500,200736.800,188713.200,0.000
183826.800,174448.000,340246.800,380171.000,195652.300,190358.000,196590.700,184420.500,0.000
182146.500,171110.100,338431.500,374373.900,182140.400,188450.100,192352.400,180698.800,0.000
183094.200,172127.100,339092.300,375455.900,183083.300,189342.600,193674.400,182452.900,0.000
185383.600,176055.800,341277.600,381798.000,196824.000,191855.000,198705.900,187250.700,0.000
185948.500,177704.200,342074.700,384975.200,205297.300,192549.400,200737.400,188708.500,0.000
183818.800,174443.300,340157.200,380042.400,195646.100,190351.800,196584.100,184410.900,0.000
182137.800,171106.100,338342.800,374243.400,182132.000,188439.900,192345.100,180690.900,0.000
183095.900,172134.200,339011.600,375332.900,183084.800,189341.500,193674.600,182450.500,0.000
185392.300,176065.100,341206.200,381680.900,196830.400,191856.900,198705.800,187248.000,0.000
185955.600,177706.700,342001.500,384855.800,205297.800,192545.500,200734.700,188703.300,0.000
183820.800,174438.800,340077.500,379922.800,195651.000,190352.700,196587.700,184412.700,0.000
182132.800,171093.200,338254.400,374116.000,182132.300,188440.200,192344.000,180687.100,0.000
183083.700,172113.100,338914.400,375196.400,183072.900,189335.500,193665.500,182440.900,0.000
185372.100,176040.600,341105.500,381540.200,196808.200,191848.700,198694.100,187237.300,0.000
185935.000,177685.900,341903.600,384719.100,205275.400,192544.100,200725.100,188694.100,0.000
183808.800,174428.200,339984.600,379789.600,195642.200,190349.800,196580.100,184403.800,0.000
182122.800,171094.600,338169.300,373984.100,182136.300,188430.100,192334.400,180679.900,0.000
183070.800,172110.600,338828.700,375066.600,183073.700,189327.700,193658.100,182436.400,0.000
185355.500,176026.700,341010.400,381410.500,196799.300,191846.100,198689.500,187237.100,0.000
185922.600,177676.600,341811.200,384594.900,205269.800,192540.700,200725.200,188696.500,0.000
183798.800,174420.700,339896.800,379671.600,195640.300,190351.000,196581.100,184406.000,0.000
182112.000,171078.100,338076.900,373866.000,182127.800,188432.800,192333.900,180678.800,0.000
183065.800,172106.200,338742.600,374949.100,183063.400,189325.500,193653.200,182430.800,0.000
185349.600,176034.400,340934.700,381291.600,196785.000,191838.900,198682.500,187227.000,0.000
185910.700,177676.100,341732.800,384476.100,205262.000,192533.700,200719.500,188688.900,0.000
183789.800,174419.000,339816.400,379556.800,195642.500,190345.300,196579.000,184402.800,0.000
182105.400,171075.300,337996.700,373750.800,182118.800,188427.200,192327.500,180674.500,0.000
183058.400,172097.100,338662.000,374833.800,183047.200,189326.500,193650.100,182432.900,0.000
185347.000,176026.300,340850.600,381180.300,196780.600,191841.300,198682.700,187232.000,0.000
185912.500,177678.700,341650.900,384363.400,205263.300,192532.800,200718.000,188692.300,0.000
183794.900,174431.300,339742.900,379445.400,195638.300,190345.500,196577.600,184406.500,0.000
182099.000,171076.600,337920.600,373640.400,182111.800,188429.700,192331.700,180678.200,0.000
183051.800,172096.500,338583.700,374719.300,183039.400,189323.000,193651.700,182429.200,0.000
185341.400,176021.700,340771.700,381057.100,196774.200,191836.200,198680.700,187225.300,0.000
185908.000,177674.700,341574.100,384242.500,205270.200,192530.200,200720.700,188691.100,0.000
183785.300,174422.600,339662.500,379326.800,195645.600,190341.000,196584.000,184406.600,0.000
182097.600,171076.100,337840.000,373520.200,182113.500,188422.200,192334.400,180674.600,0.000
183049.900,172096.300,338501.400,374600.100,183041.400,189320.800,193653.400,182427.300,0.000
185338.800,176021.300,340686.200,380937.100,196772.200,191835.900,198679.700,187222.300,0.000
185907.300,177676.200,341490.200,384125.600,205265.600,192533.400,200720.300,188687.700,0.000
183784.200,174424.100,339579.600,379212.200,195649.800,190342.700,196581.300,184403.000,0.000
182102.400,171082.300,337762.400,373407.200,182122.300,188427.400,192333.500,180673.500,0.000
183046.900,172094.500,338424.700,374483.200,183045.000,189327.600,193658.100,182432.100,0.000
185337.500,176023.700,340616.600,380825.300,196779.000,191842.300,198686.600,187232.300,0.000
185911.700,177681.500,341420.800,384015.600,205275.800,192535.500,200725.800,188700.100,0.000
183791.500,174431.300,339511.200,379104.500,195666.500,190346.800,196588.700,184417.200,0.000
182108.900,171089.700,337695.900,373299.900,182147.000,188434.000,192342.200,180688.700,0.000
183057.500,172104.700,338358.000,374371.100,183055.400,189328.300,193657.200,182437.000,0.000
185348.500,176031.300,340547.300,380713.200,196773.700,191839.100,198685.200,187235.400,0.000
185919.900,177684.600,341349.500,383911.300,205280.400,192539.600,200730.700,188707.700,0.000
183799.600,174439.500,339444.900,379003.900,195687.500,190358.800,196600.000,184429.100,0.000
182114.300,171091.200,337626.200,373193.300,182157.400,188443.700,192348.800,180694.800,0.000
183064.000,172097.300,338281.500,374260.100,183051.900,189333.300,193657.300,182437.000,0.000
185348.700,176020.600,340469.200,380598.400,196760.000,191842.500,198681.000,187229.900,0.000
185921.500,177683.900,341277.200,383801.700,205272.400,192545.900,200732.400,188703.400,0.000
183800.100,174432.800,339364.600,378898.800,195690.100,190367.400,196605.800,184426.300,0.000
182110.800,171081.700,337540.200,373082.900,182155.600,188446.100,192348.300,180687.400,0.000
183056.100,172092.200,338197.200,374143.300,183037.800,189326.700,193648.200,182423.700,0.000
185345.500,176020.300,340387.100,380485.800,196747.600,191838.200,198676.500,187220.700,0.000
185924.200,177687.100,341200.700,383697.000,205266.300,192545.600,200731.800,188700.900,0.000
183808.500,174444.100,339294.700,378795.800,195685.600,190359.500,196603.200,184426.700,0.000
182111.900,171086.400,337469.900,372980.600,182147.400,188438.000,192346.200,180686.000,0.000
183054.000,172090.500,338125.800,374040.300,183026.600,189327.100,193651.600,182425.700,0.000
185343.000,176017.400,340315.200,380379.200,196743.000,191836.600,198677.800,187224.400,0.000
185927.100,177690.500,341129.500,383591.100,205272.300,192544.900,200734.800,188706.000,0.000
183808.300,174446.300,339221.100,378692.400,195687.600,190365.300,196609.000,184430.800,0.000
182118.800,171095.700,337398.000,372883.300,182148.900,188448.700,192356.100,180694.900,0.000
183062.300,172100.500,338054.800,373945.800,183034.500,189339.700,193661.700,182433.500,0.000
185345.300,176020.400,340240.500,380275.400,196743.700,191841.600,198677.500,187222.300,0.000
185918.300,177680.800,341049.300,383472.700,205263.000,192535.900,200724.600,188695.800,0.000
183804.900,174440.000,339147.100,378579.200,195686.800,190359.600,196601.800,184427.400,0.000
182119.700,171093.100,337325.300,372776.900,182150.900,188445.500,192351.500,180693.400,0.000
183064.900,172098.600,337981.700,373837.400,183035.000,189334.500,193657.700,182432.200,0.000
185351.000,176024.800,340172.400,380168.000,196747.900,191838.900,198681.500,187226.200,0.000
185920.100,177684.100,340980.400,383361.100,205253.800,192527.600,200722.300,188693.500,0.000
183803.900,174438.800,339071.100,378463.600,195674.200,190350.500,196597.300,184419.800,0.000
182118.400,171093.000,337250.400,372666.300,182158.600,188442.900,192352.700,180690.100,0.000
183062.900,172100.500,337909.100,373726.800,183045.600,189324.600,193652.300,182422.300,0.000
185342.700,176019.500,340097.300,380052.200,196742.600,191829.700,198669.300,187212.300,0.000
185913.100,177684.000,340909.300,383250.300,205252.200,192528.600,200717.900,188689.400,0.000
183798.900,174442.200,339006.700,378361.700,195684.600,190354.500,196599.900,184420.800,0.000
182121.300,171098.500,337186.800,372567.700,182169.700,188444.200,192353.700,180688.900,0.000
183066.700,172105.400,337845.800,373635.900,183065.100,189333.800,193659.300,182428.000,0.000
185339.600,176019.400,340032.000,379958.700,196756.100,191830.600,198673.300,187218.700,0.000
185901.900,177674.500,340838.100,383150.100,205246.800,192527.000,200717.400,188692.000,0.000
183797.200,174440.400,338938.300,378268.200,195690.700,190355.100,196604.500,184428.300,0.000
182124.600,171100.600,337122.300,372478.900,182186.000,188448.300,192360.600,180699.000,0.000
183072.200,172109.800,337782.900,373542.200,183065.900,189338.200,193663.400,182434.600,0.000
185347.600,176027.300,339970.400,379859.700,196745.600,191838.200,198679.200,187223.000,0.000
185907.800,177681.400,340777.800,383050.300,205242.900,192532.800,200726.200,188698.200,0.000
183796.500,174436.200,338869.400,378164.900,195682.600,190357.100,196603.800,184425.400,0.000
182121.800,171097.300,337053.300,372380.900,182184.800,188449.300,192360.800,180696.300,0.000
183062.000,172099.900,337710.700,373440.300,183061.800,189333.000,193658.100,182429.900,0.000
185330.300,176008.200,339892.700,379746.800,196728.300,191828.500,198664.400,187214.600,0.000
185898.700,177667.700,340699.300,382937.500,205228.300,192525.200,200710.400,188691.600,0.000
183796.300,174435.200,338798.300,378065.800,195684.900,190357.300,196600.900,184428.100,0.000
182123.500,171096.000,336981.600,372285.300,182184.300,188453.600,192361.500,180698.200,0.000
183067.000,172104.000,337640.200,373345.100,183058.500,189342.800,193661.800,182433.700,0.000
185334.200,176012.300,339822.000,379644.800,196722.500,191828.000,198662.500,187213.100,0.000
185897.200,177671.400,340631.200,382832.000,205225.200,192521.200,200708.700,188690.000,0.000
183800.600,174442.600,338734.700,377970.000,195688.600,190360.600,196607.800,184434.300,0.000
182129.100,171101.200,336919.300,372194.200,182190.100,188459.400,192371.700,180705.300,0.000
183068.000,172101.900,337573.600,373247.200,183060.600,189342.000,193667.000,182435.200,0.000
185330.400,176010.700,339753.800,379545.400,196725.200,191832.500,198668.100,187215.700,0.000
185900.700,177675.800,340563.700,382736.300,205230.000,192532.900,200718.200,188696.000,0.000
183801.400,174444.400,338662.600,377872.300,195694.400,190368.600,196611.800,184437.800,0.000
182129.500,171105.400,336846.100,372097.800,182203.900,188461.500,192372.100,180705.800,0.000
183063.400,172101.800,337497.000,373147.000,183069.700,189340.400,193664.700,182432.200,0.000
185324.900,176005.300,339675.700,379438.000,196724.600,191819.200,198658.400,187210.100,0.000
185886.900,177660.500,340487.000,382623.100,205224.200,192511.700,200703.600,188687.900,0.000
183792.800,174434.500,338593.200,377761.500,195694.200,190354.000,196602.600,184432.700,0.000
182130.200,171101.000,336779.800,371992.200,182212.000,188458.400,192370.500,180704.900,0.000
183068.300,172100.900,337436.900,373045.600,183083.400,189342.200,193666.700,182434.000,0.000
185324.900,176002.700,339615.400,379333.300,196727.200,191818.100,198657.200,187208.200,0.000
185887.000,177660.800,340424.300,382516.900,205218.200,192507.200,200700.600,188686.600,0.000
183789.400,174438.900,338531.500,377661.700,195702.500,190349.600,196606.700,184436.900,0.000
182128.200,171105.200,336717.100,371892.500,182223.400,188455.900,192372.600,180707.700,0.000
183068.200,172098.300,337365.300,372939.800,183076.500,189336.100,193658.200,182427.700,0.000
185331.200,176008.800,339547.800,379232.800,196714.900,191818.800,198656.300,187208.800,0.000
185895.800,177671.200,340362.500,382424.200,205213.900,192509.600,200705.200,188692.000,0.000
183803.600,174447.700,338472.600,377573.500,195703.500,190354.700,196608.100,184439.200,0.000
182141.300,171115.000,336660.300,371811.100,182229.100,188468.500,192380.300,180713.800,0.000
183075.600,172110.800,337310.800,372857.400,183078.500,189340.600,193663.000,182432.800,0.000
185331.800,176014.300,339490.700,379146.800,196709.000,191824.100,198656.600,187208.800,0.000
185898.800,177676.500,340302.100,382336.300,205209.900,192512.800,200703.100,188689.100,0.000
183808.000,174450.500,338408.700,377485.100,195700.300,190352.400,196607.400,184438.200,0.000
182146.200,171121.000,336599.300,371726.500,182228.200,188464.600,192380.800,180715.700,0.000
183080.800,172119.100,337252.200,372777.400,183085.300,189345.800,193668.600,182439.900,0.000
185337.100,176020.300,339429.900,379058.900,196717.000,191826.500,198657.800,187214.100,0.000
185900.500,177678.100,340236.700,382237.500,205205.500,192507.800,200697.500,188688.400,0.000
183809.900,174458.200,338347.000,377392.500,195703.300,190354.300,196607.400,184438.900,0.000
182146.900,171125.600,336533.500,371631.800,182226.200,188465.400,192378.300,180709.700,0.000
183081.400,172120.300,337184.600,372679.900,183076.800,189345.700,193666.800,182431.800,0.000
185339.000,176021.400,339364.900,378962.600,196706.800,191821.600,198657.000,187209.100,0.000
185904.800,177682.800,340176.500,382144.900,205201.000,192508.300,200700.200,188691.100,0.000
183820.900,174465.800,338286.500,377302.500,195697.900,190362.600,196614.500,184444.600,0.000
182162.500,171135.900,336475.900,371549.300,182231.600,188477.900,192393.300,180720.200,0.000
183090.400,172125.700,337124.300,372593.800,183084.200,189353.500,193679.300,182441.100,0.000
185339.200,176019.000,339300.800,378867.900,196706.500,191831.800,198666.800,187215.500,0.000
185906.200,177683.800,340113.800,382050.400,205205.800,192516.100,200709.200,188696.000,0.000
183820.700,174464.700,338221.800,377209.100,195710.800,190366.600,196620.600,184448.000,0.000
182165.300,171136.800,336412.600,371455.000,182243.900,188477.000,192394.000,180725.800,0.000
183102.500,172134.500,337068.400,372502.100,183097.800,189355.000,193680.300,182447.800,0.000
185347.100,176025.700,339243.500,378770.700,196711.800,191824.400,198661.100,187214.900,0.000
185911.500,177686.900,340057.800,381953.700,205204.500,192516.200,200707.900,188697.500,0.000
183828.800,174474.800,338172.400,377120.700,195728.700,190370.800,196627.600,184455.900,0.000
182178.600,171153.200,336369.300,371373.600,182274.400,188491.600,192408.200,180736.900,0.000
183119.600,172155.500,337030.300,372423.100,183123.600,189377.000,193702.700,182465.500,0.000
185367.900,176051.100,339206.300,378692.900,196731.000,191845.600,198686.500,187239.800,0.000
185926.900,177711.900,340012.100,381876.300,205224.300,192530.100,200729.800,188721.700,0.000
183835.700,174490.700,338115.400,377036.300,195740.500,190376.600,196642.000,184472.800,0.000
182166.600,171147.300,336292.300,371268.100,182264.200,188472.300,192404.200,180732.600,0.000
183079.600,172119.500,336925.800,372288.300,183080.500,189333.800,193672.600,182433.300,0.000
185310.000,175997.000,339087.300,378537.400,196660.800,191792.500,198638.400,187191.000,0.000
185873.500,177660.700,339898.900,381721.800,205162.600,192481.300,200687.000,188678.400,0.000
183798.600,174453.900,338013.900,376895.900,195700.500,190336.000,196606.300,184436.800,0.000
182156.700,171132.200,336211.200,371154.800,182246.600,188466.300,192387.500,180716.600,0.000
183093.200,172127.700,336867.400,372204.600,183089.300,189347.300,193673.800,182438.200,0.000
185330.500,176017.400,339039.600,378467.500,196684.100,191807.300,198649.200,187205.200,0.000
185894.000,177686.400,339859.100,381654.600,205186.200,192495.800,200698.600,188693.900,0.000
183823.300,174482.900,337982.300,376838.300,195728.300,190364.500,196628.600,184460.700,0.000
182168.900,171149.500,336169.400,371088.300,182258.400,188477.500,192397.400,180727.800,0.000
183101.500,172138.500,336818.900,372124.700,183083.500,189349.500,193671.400,182440.100,0.000
185343.300,176026.200,338994.100,378386.800,196680.700,191816.700,198647.700,187208.800,0.000
185903.300,177688.300,339806.700,381574.400,205192.100,192503.200,200697.500,188698.400,0.000
183831.000,174484.900,337923.900,376758.800,195743.300,190367.500,196628.000,184466.400,0.000
182180.000,171156.700,336115.500,371011.500,182275.800,188490.300,192405.100,180737.200,0.000
183106.400,172140.100,336762.400,372039.500,183084.800,189358.800,193675.700,182440.000,0.000
185347.300,176026.100,338934.500,378297.200,196677.500,191821.000,198649.200,187205.500,0.000
185914.000,177694.000,339750.000,381490.900,205201.000,192508.500,200703.600,188700.900,0.000
183841.200,174490.800,337868.300,376675.100,195756.000,190374.100,196637.300,184469.600,0.000
182182.100,171154.800,336053.700,370919.100,182281.700,188493.000,192409.300,180735.400,0.000
183105.300,172134.300,336699.100,371947.400,183093.500,189368.900,193685.800,182444.700,0.000
185345.300,176020.500,338871.100,378202.200,196682.700,191823.000,198653.700,187206.800,0.000
185911.800,177688.800,339687.200,381393.300,205202.400,192510.300,200703.500,188699.000,0.000
183834.700,174483.400,337803.400,376578.500,195766.700,190368.800,196636.100,184470.200,0.000
182179.800,171146.500,335991.700,370824.000,182295.600,188493.300,192410.000,180737.200,0.000
183103.600,172123.000,336632.800,371845.100,183093.800,189355.800,193672.300,182436.400,0.000
185343.400,176009.800,338803.400,378101.300,196675.900,191813.700,198641.300,187200.700,0.000
185907.300,177678.800,339622.300,381297.300,205194.900,192504.000,200697.000,188697.100,0.000
183834.700,174480.500,337743.700,376488.000,195767.100,190372.000,196635.700,184468.000,0.000
182181.300,171150.200,335934.100,370737.100,182305.600,188493.700,192410.000,180735.400,0.000
183105.900,172129.800,336580.100,371760.600,183098.400,189357.600,193672.800,182436.600,0.000
185338.600,176009.500,338750.200,378017.600,196671.000,191816.100,198642.700,187201.800,0.000
185908.500,177685.300,339571.700,381220.200,205201.900,192508.500,200704.100,188702.000,0.000
183837.900,174486.800,337689.100,376415.500,195779.800,190376.900,196644.400,184475.900,0.000
182178.700,171146.500,335869.500,370656.900,182306.200,188491.500,192410.200,180734.800,0.000
183096.600,172118.600,336509.600,371678.200,183091.100,189355.600,193672.300,182431.600,0.000
185336.100,176006.000,338682.900,377935.900,196659.200,191816.500,198642.600,187196.900,0.000
185906.400,177683.200,339504.200,381139.200,205188.200,192506.700,200701.700,188697.000,0.000
183835.200,174485.600,337625.900,376336.700,195772.400,190374.900,196638.400,184469.900,0.000
182178.600,171148.000,335812.700,370580.600,182294.800,188493.700,192408.700,180734.100,0.000
183103.700,172124.400,336454.400,371599.100,183076.400,189354.200,193667.000,182432.600,0.000
185332.700,176003.400,338624.400,377853.800,196651.200,191814.300,198635.500,187195.300,0.000
185900.800,177677.700,339443.700,381053.700,205182.400,192501.100,200691.100,188692.400,0.000
183830.500,174481.800,337566.300,376251.000,195757.300,190372.000,196632.800,184466.600,0.000
182177.300,171149.400,335754.800,370502.000,182285.900,188493.400,192409.500,180734.500,0.000
183100.700,172123.300,336397.900,371520.800,183069.500,189359.000,193671.300,182433.500,0.000
185340.300,176005.800,338570.600,377773.000,196646.700,191813.000,198637.600,187198.000,0.000
185910.400,177687.300,339396.700,380976.900,205193.300,192507.700,200702.700,188702.000,0.000
183834.700,174487.800,337516.800,376169.900,195769.900,190374.800,196641.600,184474.600,0.000
182177.100,171150.000,335700.800,370413.800,182287.700,188490.800,192410.800,180736.400,0.000
183097.600,172122.900,336340.800,371427.400,183068.300,189353.600,193667.400,182427.700,0.000
185332.700,176005.200,338508.300,377674.800,196638.700,191809.100,198630.500,187185.600,0.000
185902.500,177679.100,339328.600,380876.300,205180.700,192501.900,200691.600,188688.400,0.000
183831.700,174481.400,337450.000,376076.300,195770.200,190375.500,196639.100,184469.100,0.000
182173.200,171141.100,335632.800,370322.100,182295.600,188496.500,192412.200,180733.600,0.000
183094.900,172112.800,336273.200,371336.700,183074.800,189368.800,193678.000,182431.000,0.000
185329.900,175993.400,338441.700,377580.800,196640.500,191809.900,198634.500,187188.500,0.000
185895.100,177670.700,339264.400,380783.800,205180.700,192496.200,200692.600,188691.500,0.000
183826.300,174475.800,337386.600,375985.400,195775.600,190369.200,196636.200,184468.300,0.000
182170.000,171138.400,335572.900,370233.800,182316.600,188493.000,192410.100,180732.100,0.000
183091.300,172110.000,336212.800,371240.500,183082.500,189349.700,193663.400,182421.500,0.000
185332.600,175996.700,338383.800,377488.000,196630.400,191807.300,198630.700,187184.400,0.000
185894.600,177672.300,339204.700,380695.200,205172.000,192499.000,200696.600,188691.800,0.000
183828.600,174482.200,337328.600,375905.400,195783.300,190375.300,196644.900,184473.400,0.000
182172.500,171144.400,335513.400,370153.800,182323.700,188494.500,192416.900,180734.800,0.000
183088.000,172111.800,336152.600,371157.300,183081.900,189350.200,193670.600,182423.200,0.000
185323.800,175994.900,338323.100,377398.400,196618.000,191804.000,198633.400,187186.100,0.000
185896.300,177678.600,339153.200,380611.300,205163.600,192498.100,200702.200,188699.400,0.000
183831.300,174493.300,337283.700,375830.500,195789.900,190376.800,196657.000,184483.600,0.000
182175.100,171152.000,335465.200,370079.500,182323.300,188495.000,192422.000,180738.400,0.000
183092.700,172119.600,336101.600,371082.200,183074.600,189347.300,193666.400,182424.800,0.000
185331.100,176003.100,338273.400,377321.700,196617.700,191801.600,198632.100,187189.100,0.000
185895.300,177677.100,339098.500,380529.500,205162.000,192501.900,200703.800,188700.100,0.000
183827.500,174484.500,337220.700,375746.100,195780.500,190378.800,196656.600,184483.200,0.000
182177.400,171150.100,335406.200,369997.900,182311.000,188491.700,192418.800,180735.900,0.000
183097.900,172117.200,336045.900,371004.700,183063.800,189351.400,193668.600,182423.300,0.000
185331.600,175994.800,338217.500,377243.700,196609.300,191808.100,198633.900,187186.600,0.000
185899.900,177675.700,339042.300,380454.300,205168.700,192507.400,200707.600,188702.500,0.000
183836.100,174489.700,337167.800,375673.300,195787.300,190381.900,196657.800,184483.600,0.000
182176.800,171150.200,335350.000,369925.000,182310.300,188500.200,192423.400,180735.100,0.000
183095.800,172119.700,335987.200,370929.800,183066.700,189358.700,193673.800,182423.700,0.000
185326.600,175997.900,338157.400,377164.000,196614.000,191811.000,198634.300,187185.900,0.000
185893.500,177676.200,338981.700,380372.300,205166.800,192504.100,200701.100,188698.400,0.000
183834.500,174495.600,337110.600,375597.900,195796.200,190382.400,196659.200,184483.600,0.000
182183.600,171160.100,335295.200,369849.900,182316.000,188500.900,192425.500,180734.400,0.000
183098.800,172123.600,335932.200,370850.900,183062.400,189358.600,193672.600,182420.400,0.000
185330.800,176001.800,338100.000,377087.400,196613.400,191813.600,198635.400,187185.900,0.000
185901.900,177685.600,338928.400,380298.700,205177.400,192510.800,200707.100,188701.800,0.000
183843.400,174500.700,337059.800,375519.700,195804.800,190394.000,196665.000,184486.000,0.000
182185.000,171158.300,335241.000,369765.300,182326.100,188504.100,192427.800,180736.400,0.000
183102.800,172125.200,335879.600,370765.000,183072.800,189363.500,193674.800,182421.700,0.000
185337.800,176005.800,338050.900,377002.100,196618.800,191822.900,198639.300,187186.000,0.000
185903.000,177683.100,338871.800,380212.400,205184.300,192505.800,200701.800,188694.000,0.000
183844.100,174499.300,336999.900,375436.000,195812.600,190385.500,196655.800,184477.100,0.000
182187.500,171159.800,335180.800,369682.600,182334.600,188501.700,192420.200,180730.500,0.000
183097.800,172121.700,335815.700,370681.500,183079.000,189357.300,193666.500,182414.700,0.000
185329.700,175997.600,337986.600,376923.100,196618.500,191817.200,198633.800,187178.700,0.000
185902.200,177683.700,338814.700,380139.800,205179.300,192512.900,200708.700,188695.800,0.000
183837.400,174499.700,336944.800,375360.400,195812.800,190383.400,196660.000,184480.000,0.000
182176.900,171153.900,335126.300,369599.500,182329.800,188495.800,192415.800,180729.200,0.000
183088.100,172110.100,335759.100,370596.300,183063.700,189351.800,193658.000,182410.300,0.000
185321.100,175986.400,337929.000,376841.400,196606.800,191809.500,198623.800,187174.300,0.000
185894.800,177673.300,338756.200,380060.900,205169.800,192508.900,200698.800,188691.300,0.000
183836.000,174496.200,336888.300,375282.400,195805.700,190384.500,196655.500,184479.300,0.000
182181.000,171161.300,335076.400,369530.400,182327.700,188501.300,192421.600,180736.500,0.000
183095.000,172121.000,335710.000,370526.900,183058.900,189359.500,193665.600,182419.400,0.000
185330.900,176001.000,337882.200,376773.100,196599.300,191820.900,198632.500,187183.900,0.000
185899.600,177686.000,338707.300,379995.200,205182.100,192519.800,200709.600,188704.500,0.000
183837.700,174504.400,336838.400,375217.100,195822.700,190393.300,196665.000,184493.700,0.000
182180.500,171163.900,335025.000,369454.300,182328.100,188506.400,192422.800,180743.300,0.000
183087.400,172117.300,335656.900,370439.400,183042.000,189351.000,193651.900,182411.900,0.000
185323.000,175996.000,337827.500,376679.600,196585.000,191808.900,198613.200,187173.600,0.000
185899.800,177684.600,338657.000,379909.600,205179.000,192513.200,200697.700,188701.800,0.000
183837.000,174503.000,336787.300,375142.700,195836.300,190392.300,196661.400,184495.500,0.000
182173.300,171156.800,334964.900,369377.600,182335.600,188505.100,192418.500,180741.500,0.000
183085.300,172112.200,335595.700,370361.800,183036.500,189357.300,193652.000,182414.300,0.000
185323.200,175988.800,337767.900,376602.200,196574.500,191819.700,198618.600,187179.200,0.000
185898.200,177679.400,338598.400,379833.000,205178.100,192518.400,200702.500,188708.500,0.000
183843.500,174508.700,336732.900,375070.400,195844.500,190397.800,196668.900,184503.700,0.000
182182.200,171164.300,334914.000,369305.600,182344.900,188505.300,192424.800,180747.800,0.000
183085.900,172110.600,335539.200,370279.100,183031.200,189350.700,193650.800,182413.300,0.000
185319.000,175983.400,337708.300,376514.500,196559.400,191806.200,198611.800,187175.800,0.000
185905.400,177685.100,338548.800,379759.100,205178.800,192518.000,200707.100,188714.200,0.000
183845.500,174513.100,336685.700,375004.300,195865.000,190402.800,196677.800,184513.900,0.000
182176.800,171158.500,334857.800,369229.800,182354.800,188506.300,192423.800,180747.600,0.000
183085.900,172105.700,335486.200,370198.800,183031.700,189354.800,193646.500,182409.800,0.000
185325.500,175984.400,337658.300,376433.800,196553.900,191807.700,198605.700,187170.800,0.000
185907.400,177685.300,338493.000,379677.900,205176.800,192515.900,200700.600,188708.100,0.000
183852.300,174520.500,336632.100,374927.800,195875.000,190404.300,196678.500,184512.400,0.000
182181.300,171163.900,334808.900,369151.500,182357.900,188513.800,192427.300,180747.600,0.000
183084.800,172105.900,335432.700,370113.900,183021.300,189349.100,193639.500,182401.700,0.000
185323.800,175986.000,337604.000,376350.600,196542.900,191806.900,198601.200,187164.000,0.000
185906.300,177688.300,338442.900,379600.900,205177.400,192519.000,200702.400,188708.700,0.000
183848.300,174517.300,336580.100,374855.100,195882.900,190404.600,196680.700,184515.700,0.000
182177.200,171159.200,334753.600,369080.200,182363.200,188508.400,192426.500,180746.600,0.000
183081.500,172102.500,335379.900,370043.300,183015.600,189353.300,193644.800,182404.800,0.000
185319.300,175981.600,337551.900,376276.100,196529.000,191807.800,198603.800,187167.500,0.000
185906.700,177693.800,338397.200,379533.400,205177.600,192523.600,200710.300,188714.500,0.000
183851.600,174526.800,336535.300,374785.900,195886.200,190408.200,196686.500,184514.900,0.000
182180.000,171166.100,334706.300,369007.800,182361.500,188510.000,192428.200,180743.800,0.000
183091.100,172113.000,335331.900,369971.400,183014.200,189353.700,193646.800,182404.400,0.000
185321.700,175983.700,337499.200,376198.600,196518.200,191807.800,198602.800,187162.800,0.000
185906.300,177688.700,338339.400,379456.500,205172.100,192523.400,200709.600,188712.500,0.000
183852.400,174525.500,336480.800,374716.600,195897.800,190407.400,196690.000,184519.500,0.000
182184.300,171169.800,334656.700,368935.300,182364.700,188505.300,192427.900,180743.300,0.000
183085.600,172108.000,335277.400,369890.700,183003.200,189344.900,193641.100,182396.200,0.000
185316.500,175978.800,337441.500,376118.000,196513.500,191802.200,198600.400,187159.100,0.000
185902.900,177686.400,338283.800,379378.700,205174.800,192515.800,200709.600,188712.300,0.000
183848.200,174524.100,336423.800,374642.000,195903.000,190402.500,196693.300,184520.600,0.000
182181.700,171168.900,334597.200,368862.300,182369.000,188505.800,192434.100,180747.600,0.000
183080.600,172102.000,335218.200,369810.100,182992.200,189345.800,193639.700,182394.500,0.000
185313.700,175973.100,337387.500,376037.400,196496.800,191804.300,198595.800,187157.700,0.000
185909.700,177692.700,338235.300,379310.600,205180.200,192524.400,200712.500,188719.600,0.000
183863.000,174539.200,336382.900,374583.200,195931.100,190416.200,196704.800,184535.300,0.000
182189.300,171176.600,334555.200,368795.200,182385.200,188517.800,192439.300,180752.500,0.000
183083.200,172098.900,335168.400,369731.800,182986.400,189352.500,193637.300,182393.500,0.000
185315.200,175969.800,337335.000,375959.400,196489.500,191799.800,198589.500,187154.800,0.000
185909.800,177693.600,338183.600,379238.100,205180.400,192524.000,200712.500,188721.200,0.000
183859.900,174541.700,336329.700,374516.600,195945.600,190421.400,196708.500,184539.900,0.000
182181.800,171172.500,334495.800,368717.500,182388.800,188506.800,192430.300,180749.500,0.000
183080.600,172099.800,335114.600,369653.400,182981.300,189338.500,193626.800,182388.800,0.000
185318.100,175971.200,337283.700,375879.800,196477.000,191798.100,198583.800,187151.400,0.000
185909.800,177692.200,338132.700,379157.900,205178.700,192519.100,200707.600,188721.400,0.000
183863.500,174540.700,336280.600,374437.300,195952.900,190413.400,196703.500,184540.200,0.000
182187.200,171173.500,334450.300,368644.900,182402.000,188508.300,192431.100,180753.000,0.000
183078.800,172094.300,335063.700,369575.100,182979.300,189342.800,193625.200,182387.800,0.000
185316.600,175965.600,337232.500,375803.300,196466.800,191805.300,198585.300,187151.300,0.000
185915.700,177693.000,338087.500,379092.400,205185.500,192528.500,200713.000,188724.400,0.000
183867.500,174541.100,336238.800,374375.400,195968.700,190421.000,196711.200,184543.900,0.000
182192.100,171172.300,334407.700,368580.400,182408.500,188518.000,192436.200,180753.600,0.000
183090.300,172094.000,335021.000,369508.000,182978.000,189347.500,193626.300,182386.000,0.000
185323.200,175965.800,337190.000,375731.100,196463.300,191797.600,198580.700,187144.400,0.000
185920.500,177692.400,338040.100,379020.700,205182.800,192524.200,200714.300,188720.200,0.000
183873.900,174544.200,336189.700,374311.100,195978.300,190420.200,196720.300,184547.100,0.000
182193.200,171168.100,334356.500,368510.500,182408.000,188514.100,192442.200,180753.700,0.000
183082.600,172083.800,334965.500,369428.500,182963.700,189340.700,193625.000,182380.700,0.000
185319.000,175956.900,337134.300,375654.600,196453.900,191800.900,198581.200,187144.500,0.000
185924.400,177692.400,337992.500,378952.000,205183.300,192536.100,200721.000,188727.200,0.000
183879.300,174549.400,336142.000,374241.200,195977.200,190422.900,196720.900,184551.100,0.000
182196.000,171173.200,334304.300,368437.700,182408.400,188507.800,192439.000,180753.600,0.000
183086.500,172087.000,334918.000,369354.100,182963.600,189337.900,193622.900,182381.200,0.000
185321.100,175955.800,337086.400,375574.900,196447.400,191797.600,198579.200,187143.100,0.000
185928.200,177695.600,337949.700,378881.700,205192.400,192539.400,200729.200,188733.800,0.000
183890.600,174562.300,336107.000,374184.400,196010.300,190436.000,196737.100,184564.500,0.000
182215.400,171191.900,334276.700,368386.100,182445.600,188527.800,192456.800,180768.800,0.000
183109.100,172105.500,334888.900,369299.800,182990.900,189357.000,193638.800,182394.800,0.000
185341.900,175976.400,337054.800,375519.300,196468.800,191813.800,198592.000,187155.600,0.000
185943.400,177714.000,337911.400,378824.200,205217.900,192545.900,200737.300,188743.300,0.000
183889.200,174565.000,336054.200,374120.000,196037.200,190432.700,196741.000,184566.600,0.000
182186.500,171168.700,334197.700,368290.800,182434.200,188505.100,192436.900,180746.300,0.000
183051.600,172055.400,334787.500,369174.400,182933.000,189309.700,193592.800,182348.500,0.000
185274.400,175910.500,336942.600,375381.600,196391.700,191753.900,198535.900,187102.300,0.000
185888.700,177657.000,337808.900,378696.900,205153.300,192496.700,200690.700,188701.800,0.000
183856.900,174531.700,335972.100,374014.900,196003.600,190401.700,196711.400,184545.300,0.000
182171.500,171154.000,334136.300,368208.300,182423.700,188490.000,192424.000,180740.600,0.000
183056.100,172060.300,334744.900,369106.300,182926.900,189312.800,193590.800,182352.100,0.000
185302.100,175936.200,336918.500,375331.800,196392.200,191778.100,198549.600,187116.100,0.000
185921.900,177692.800,337789.300,378663.300,205186.000,192524.200,200716.500,188725.400,0.000
183879.100,174559.600,335947.500,373977.300,196040.500,190422.000,196734.500,184561.000,0.000
182186.800,171172.400,334102.900,368156.200,182436.800,188503.200,192438.500,180746.800,0.000
183065.400,172073.000,334702.000,369042.600,182925.300,189312.000,193598.400,182352.300,0.000
185305.200,175945.000,336871.200,375264.900,196390.300,191778.100,198559.200,187117.500,0.000
185920.300,177697.000,337741.000,378594.900,205182.100,192521.300,200720.000,188722.000,0.000
183880.600,174567.500,335902.800,373917.000,196047.700,190427.400,196745.200,184566.700,0.000
182189.400,171181.400,334060.600,368096.600,182443.300,188509.800,192450.000,180752.800,0.000
183067.400,172076.300,334659.000,368979.400,182918.400,189319.900,193604.000,182354.800,0.000
185310.500,175950.000,336828.500,375199.200,196381.500,191780.500,198555.200,187118.000,0.000
185924.200,177704.900,337696.500,378530.800,205187.100,192524.700,200721.500,188726.000,0.000
183878.700,174567.400,335853.300,373844.200,196047.600,190422.700,196739.400,184563.400,0.000
182183.600,171177.500,334008.900,368021.000,182442.800,188500.600,192441.400,180749.700,0.000
183063.000,172070.000,334608.300,368903.800,182918.500,189314.300,193597.300,182350.500,0.000
185305.600,175940.200,336778.300,375123.600,196381.000,191776.500,198552.700,187114.900,0.000
185929.200,177700.300,337650.200,378461.500,205192.100,192523.700,200722.800,188727.300,0.000
183879.900,174562.300,335806.900,373778.300,196061.500,190424.300,196744.300,184569.900,0.000
182184.200,171168.300,333961.800,367952.600,182456.500,188508.900,192447.500,180755.300,0.000
183063.800,172062.900,334560.600,368835.000,182930.000,189320.700,193602.100,182356.700,0.000
185310.400,175936.900,336733.000,375055.100,196387.100,191780.000,198554.800,187121.400,0.000
185935.300,177700.700,337608.600,378397.500,205202.100,192538.400,200730.600,188740.700,0.000
183890.800,174569.500,335766.000,373716.500,196076.500,190435.700,196751.600,184581.300,0.000
182188.100,171176.000,333918.000,367885.900,182459.400,188507.600,192445.300,180758.200,0.000
183068.500,172072.800,334519.000,368767.500,182924.500,189327.800,193602.100,182361.100,0.000
185311.400,175944.900,336690.100,374989.500,196384.000,191788.100,198558.800,187126.800,0.000
185932.100,177702.700,337561.300,378327.400,205197.900,192530.500,200723.600,188735.500,0.000
183887.300,174573.800,335722.100,373651.500,196079.300,190434.500,196750.800,184580.400,0.000
182185.100,171178.300,333873.000,367818.700,182459.500,188507.700,192445.500,180756.300,0.000
183062.600,172067.500,334472.500,368696.100,182916.800,189321.300,193596.800,182354.700,0.000
185307.100,175937.100,336642.200,374920.800,196374.000,191784.500,198551.300,187119.700,0.000
185931.300,177699.800,337514.300,378269.200,205199.100,192539.200,200729.300,188739.100,0.000
183894.500,174578.000,335677.300,373598.300,196089.000,190442.300,196757.200,184585.100,0.000
182198.000,171187.000,333833.400,367767.000,182465.600,188515.800,192450.100,180764.700,0.000
183074.800,172075.500,334430.800,368639.700,182912.300,189326.500,193597.900,182358.900,0.000
185317.300,175944.300,336599.800,374860.700,196366.600,191789.900,198552.600,187120.000,0.000
185947.400,177715.200,337476.100,378214.900,205201.000,192545.600,200734.200,188742.000,0.000
183904.200,174591.000,335639.200,373544.300,196097.900,190445.500,196763.600,184591.900,0.000
182193.500,171187.100,333790.600,367701.500,182465.300,188515.500,192452.900,180763.100,0.000
183067.400,172069.900,334386.600,368565.900,182902.200,189325.200,193598.000,182354.100,0.000
185320.000,175947.200,336559.300,374794.300,196361.300,191795.900,198558.300,187120.400,0.000
185950.700,177719.300,337437.100,378153.700,205212.500,192551.700,200742.700,188746.500,0.000
183901.900,174589.400,335596.700,373481.200,196113.500,190449.000,196772.200,184595.300,0.000
182195.200,171188.100,333746.700,367635.800,182477.000,188513.800,192457.700,180766.800,0.000
183069.800,172070.500,334340.200,368497.100,182902.100,189326.300,193599.900,182355.900,0.000
185323.300,175944.500,336511.500,374721.400,196353.200,191785.800,198552.200,187116.400,0.000
185958.300,177724.300,337394.900,378087.900,205217.100,192544.100,200739.600,188744.800,0.000
183911.900,174599.600,335558.100,373420.300,196131.900,190448.700,196773.300,184596.300,0.000
182204.500,171194.500,333705.300,367572.800,182491.100,188521.700,192460.300,180767.700,0.000
183072.300,172070.400,334294.800,368427.200,182906.900,189325.400,193595.900,182352.600,0.000
185322.200,175943.500,336466.000,374648.200,196352.000,191789.000,198552.400,187117.400,0.000
185957.900,177723.800,337347.800,378015.900,205218.300,192549.200,200746.800,188752.300,0.000
183916.300,174603.600,335511.000,373355.100,196149.000,190455.600,196785.000,184609.900,0.000
182207.400,171195.500,333654.700,367501.900,182503.300,188523.700,192466.000,180772.500,0.000
183080.100,172073.800,334245.600,368355.500,182906.200,189330.600,193599.600,182355.000,0.000
185328.600,175946.600,336415.600,374576.200,196340.800,191792.100,198551.300,187118.000,0.000
185965.500,177728.700,337299.800,377950.000,205212.600,192554.800,200748.100,188754.800,0.000
183928.000,174610.700,335470.300,373297.900,196158.400,190468.400,196793.500,184617.200,0.000
182212.400,171198.000,333612.200,367446.500,182511.800,188536.400,192474.700,180779.500,0.000
183073.800,172065.600,334194.700,368289.400,182898.100,189329.500,193600.400,182353.900,0.000
185320.500,175938.900,336366.800,374508.300,196325.900,191796.800,198553.800,187118.600,0.000
185958.800,177727.000,337255.000,377886.200,205206.100,192565.300,200756.800,188760.600,0.000
183923.800,174612.200,335421.100,373235.200,196154.000,190472.900,196803.400,184620.900,0.000
182215.800,171201.900,333566.800,367386.500,182502.700,188539.900,192482.300,180782.700,0.000
183080.400,172068.900,334152.900,368230.900,182887.400,189335.800,193603.800,182352.400,0.000
185322.000,175937.700,336321.900,374446.100,196313.400,191797.300,198553.100,187115.800,0.000
185960.700,177728.400,337211.000,377823.000,205205.600,192561.900,200753.200,188760.800,0.000
183923.600,174615.500,335380.300,373176.300,196169.700,190470.900,196799.800,184623.300,0.000
182207.300,171197.500,333519.900,367323.000,182509.700,188536.000,192476.300,180777.400,0.000
183068.800,172060.600,334100.900,368158.100,182877.600,189334.700,193596.700,182346.700,0.000
185311.300,175926.500,336267.300,374365.700,196300.300,191791.000,198544.100,187108.800,0.000
185949.600,177715.900,337154.500,377748.700,205200.300,192553.200,200747.500,188755.200,0.000
183919.900,174611.700,335329.400,373115.400,196175.200,190469.900,196800.500,184623.000,0.000
182203.300,171197.100,333471.600,367264.500,182513.100,188535.300,192475.700,180777.600,0.000
183065.900,172057.400,334057.000,368097.100,182869.800,189331.300,193594.200,182345.100,0.000
185310.900,175923.900,336227.500,374302.400,196285.200,191786.700,198537.400,187104.100,0.000
185953.200,177719.700,337116.400,377690.100,205200.600,192551.400,200745.300,188754.000,0.000
183922.500,174614.600,335287.900,373059.000,196187.900,190467.400,196802.500,184622.700,0.000
182203.300,171193.700,333428.500,367196.200,182514.400,188527.900,192472.300,180772.200,0.000
183061.700,172051.500,334008.000,368020.200,182859.400,189318.000,193581.900,182330.700,0.000
185305.200,175918.900,336176.300,374229.300,196275.500,191776.700,198527.700,187090.300,0.000
185945.300,177715.200,337069.300,377623.900,205195.200,192545.500,200740.400,188747.400,0.000
183919.800,174617.200,335247.200,373000.400,196196.200,190475.100,196811.000,184628.400,0.000
182202.900,171197.100,333384.900,367135.800,182522.800,188529.900,192473.800,180772.200,0.000
183057.400,172051.800,333962.700,367957.400,182861.100,189315.900,193579.800,182331.100,0.000
185306.200,175923.300,336133.000,374169.800,196274.400,191777.900,198530.300,187099.000,0.000
185951.100,177724.000,337026.400,377567.800,205200.600,192553.000,200749.800,188757.500,0.000
183912.300,174616.400,335196.300,372932.700,196198.500,190468.400,196805.900,184625.500,0.000
182197.300,171198.900,333337.000,367067.200,182527.400,188532.800,192475.100,180774.500,0.000
183055.700,172056.000,333918.300,367890.200,182862.700,189327.400,193587.000,182335.800,0.000
185304.700,175926.400,336089.000,374104.200,196275.500,191790.100,198535.800,187096.700,0.000
185952.300,177728.300,336985.700,377508.700,205210.700,192555.800,200752.500,188758.600,0.000
183919.700,174625.900,335160.700,372880.400,196214.000,190471.000,196810.900,184633.500,0.000
182200.800,171205.000,333298.600,367010.600,182535.000,188532.300,192476.800,180780.800,0.000
183054.000,172054.200,333875.300,367824.500,182860.700,189319.800,193580.700,182336.900,0.000
185296.100,175916.600,336041.900,374034.900,196264.000,191779.900,198526.000,187097.900,0.000
185944.500,177717.800,336938.900,377442.200,205201.600,192553.000,200746.900,188763.500,0.000
183918.100,174623.100,335116.700,372821.700,196222.000,190473.000,196814.600,184644.100,0.000
182193.900,171197.700,333252.400,366950.000,182533.700,188532.300,192478.400,180784.100,0.000
183045.300,172044.800,333825.400,367761.400,182841.100,189320.900,193578.500,182334.000,0.000
185293.900,175911.000,335991.900,373971.900,196252.700,191782.300,198526.700,187097.000,0.000
185948.500,177715.900,336889.200,377380.200,205204.500,192552.200,200746.200,188762.300,0.000
183921.700,174619.100,335067.200,372757.800,196222.000,190470.200,196812.800,184641.900,0.000
182198.300,171194.400,333204.900,366885.600,182533.400,188528.800,192475.600,180784.500,0.000
183045.100,172037.100,333778.000,367690.800,182834.600,189314.200,193570.900,182331.100,0.000
185299.000,175909.100,335949.400,373901.900,196242.900,191778.800,198521.900,187095.300,0.000
185950.000,177719.400,336851.000,377320.100,205211.900,192559.300,200754.700,188771.300,0.000
183916.100,174620.200,335028.400,372699.100,196236.500,190475.200,196820.900,184650.100,0.000
182195.900,171197.200,333165.400,366823.700,182540.700,188531.600,192480.500,180786.400,0.000
183053.000,172047.500,333743.100,367630.700,182839.000,189319.000,193577.100,182335.400,0.000
185300.500,175915.400,335915.100,373840.900,196243.200,191783.300,198524.700,187101.500,0.000
185948.700,177718.500,336813.000,377258.500,205208.200,192559.500,200753.600,188772.700,0.000
183920.300,174624.600,334991.800,372645.400,196249.700,190479.000,196824.500,184652.000,0.000
182194.700,171195.600,333123.600,366766.000,182549.300,188532.600,192480.500,180783.800,0.000
183044.500,172038.900,333693.800,367565.000,182833.200,189315.800,193571.100,182327.700,0.000
185294.900,175906.500,335862.600,373773.800,196233.700,191779.100,198517.300,187091.700,0.000
185950.500,177720.900,336766.900,377198.200,205209.000,192567.900,200756.000,188771.800,0.000
183923.400,174628.100,334945.200,372585.600,196249.800,190485.300,196828.000,184654.700,0.000
182203.500,171204.500,333081.000,366710.700,182557.500,188539.400,192484.100,180788.800,0.000
183050.800,172047.500,333653.000,367511.800,182842.100,189325.900,193576.000,182332.200,0.000
185294.000,175912.400,335820.100,373717.000,196234.400,191788.300,198520.700,187096.600,0.000
185945.800,177721.300,336722.000,377134.200,205206.300,192566.000,200754.200,188775.000,0.000
183922.200,174630.300,334902.500,372522.700,196256.100,190487.700,196828.200,184658.200,0.000
182199.100,171203.900,333033.500,366644.700,182563.600,188542.500,192485.300,180791.500,0.000
183049.700,172046.200,333601.500,367440.800,182843.200,189324.300,193573.700,182330.200,0.000
185297.400,175913.100,335770.400,373648.500,196230.300,191787.600,198519.500,187092.800,0.000
185945.900,177720.500,336668.100,377065.400,205196.700,192555.300,200747.100,188765.500,0.000
183922.800,174631.900,334850.700,372464.400,196261.400,190482.200,196829.500,184655.600,0.000
182201.200,171204.200,332986.000,366589.900,182565.900,188542.300,192487.500,180790.600,0.000
183050.000,172042.200,333556.200,367380.600,182829.900,189321.600,193572.200,182327.500,0.000
185293.200,175904.400,335724.800,373582.600,196215.200,191783.700,198517.000,187090.000,0.000
185944.300,177718.800,336628.600,377007.100,205197.200,192563.500,200754.100,188772.300,0.000
183921.300,174633.400,334809.500,372405.100,196263.000,190484.200,196830.700,184660.200,0.000
182198.100,171204.900,332942.100,366529.500,182567.400,188540.500,192486.000,180790.800,0.000
183045.400,172042.100,333511.700,367315.300,182821.100,189312.900,193562.900,182322.300,0.000
185287.300,175898.200,335676.600,373510.400,196195.300,191770.000,198499.900,187080.200,0.000
185948.700,177718.200,336585.300,376940.600,205196.900,192560.900,200749.100,188770.600,0.000
183926.800,174634.000,334767.800,372344.600,196272.600,190484.100,196830.700,184661.100,0.000
182204.700,171203.100,332898.900,366472.300,182573.800,188543.300,192487.300,180791.100,0.000
183051.100,172035.200,333465.600,367256.800,182819.500,189317.900,193565.500,182320.900,0.000
185290.000,175892.200,335631.700,373450.600,196189.700,191773.300,198504.400,187079.000,0.000
185949.100,177713.800,336541.600,376884.400,205193.900,192560.400,200753.000,188771.300,0.000
183934.000,174636.700,334731.700,372296.500,196286.600,190490.900,196842.800,184669.000,0.000
182209.500,171205.300,332862.900,366416.700,182587.300,188547.500,192495.300,180796.800,0.000
183049.000,172034.100,333424.800,367191.200,182826.000,189318.700,193568.600,182320.300,0.000
185293.400,175897.500,335592.000,373384.800,196193.900,191774.200,198505.600,187079.300,0.000
185955.700,177723.500,336503.000,376823.000,205199.100,192564.700,200756.300,188774.000,0.000
183936.400,174644.300,334690.000,372238.100,196303.100,190493.300,196847.300,184673.300,0.000
182209.100,171210.900,332818.400,366356.500,182606.200,188547.200,192498.200,180797.500,0.000
183046.800,172035.500,333378.300,367126.100,182830.800,189314.200,193566.300,182318.500,0.000
185288.300,175895.300,335543.300,373315.800,196180.900,191766.200,198498.300,187075.900,0.000
185948.000,177721.000,336455.800,376759.500,205198.000,192557.700,200750.900,188774.700,0.000
183931.300,174642.200,334643.300,372176.800,196315.100,190491.500,196846.300,184674.500,0.000
182209.400,171206.900,332774.000,366294.400,182611.300,188547.300,192497.800,180796.400,0.000
183048.500,172029.900,333336.700,367064.800,182829.700,189317.900,193565.100,182316.500,0.000
185284.900,175884.000,335500.300,373250.000,196173.800,191771.400,198499.900,187073.700,0.000
185950.400,177713.400,336415.000,376692.900,205189.300,192555.300,200752.800,188770.000,0.000
183937.900,174645.800,334606.500,372120.800,196318.400,190488.600,196850.500,184672.600,0.000
182206.400,171207.500,332732.600,366237.700,182608.600,188544.700,192498.900,180794.000,0.000
183042.300,172026.500,333291.000,367001.300,182807.400,189312.800,193559.400,182308.900,0.000
185281.900,175883.400,335454.300,373184.700,196149.700,191761.100,198489.000,187063.300,0.000
185945.600,177712.600,336367.300,376631.300,205180.200,192549.600,200746.800,188768.000,0.000
183932.400,174644.200,334559.100,372060.500,196316.000,190485.100,196846.500,184674.400,0.000
182204.200,171206.700,332687.300,366175.100,182603.000,188537.500,192492.600,180791.900,0.000
183043.500,172024.200,333247.200,366931.900,182789.000,189304.000,193552.100,182304.500,0.000
185285.500,175879.300,335411.700,373114.900,196128.300,191755.100,198482.300,187059.800,0.000
185957.700,177722.000,336333.500,376573.600,205182.000,192553.700,200749.500,188773.400,0.000
183945.800,174658.200,334529.000,372012.400,196332.600,190495.900,196857.200,184686.400,0.000
182211.300,171213.600,332653.100,366123.900,182606.400,188549.000,192498.400,180798.400,0.000
183046.000,172028.100,333210.100,366878.000,182789.400,189311.200,193551.800,182306.600,0.000
185291.100,175890.000,335379.300,373062.800,196132.600,191766.300,198484.600,187062.900,0.000
185959.900,177729.100,336302.200,376527.000,205193.000,192568.600,200755.800,188779.600,0.000
183953.400,174671.100,334503.200,371977.300,196367.600,190512.200,196872.400,184700.800,0.000
182227.000,171233.200,332636.200,366091.600,182647.900,188568.800,192519.700,180817.900,0.000
183064.000,172046.700,333193.100,366841.200,182816.800,189332.700,193573.500,182326.200,0.000
185297.200,175893.000,335346.200,373011.200,196142.000,191775.600,198491.800,187070.700,0.000
185956.200,177724.700,336251.900,376459.600,205191.200,192562.900,200751.900,188776.700,0.000
183927.100,174644.300,334433.300,371887.900,196344.500,190484.100,196849.000,184679.200,0.000
182176.600,171186.500,332548.700,365981.800,182603.800,188520.200,192477.500,180779.700,0.000
183001.000,171990.000,333095.400,366718.200,182752.700,189276.300,193519.100,182277.100,0.000
185244.400,175846.900,335258.800,372898.000,196074.900,191726.800,198446.900,187030.800,0.000
185921.500,177697.800,336185.600,376373.000,205152.900,192532.000,200729.000,188758.500,0.000
183919.800,174648.000,334387.700,371825.700,196346.100,190478.300,196849.600,184681.800,0.000
182181.900,171200.200,332511.900,365929.800,182617.300,188527.400,192485.700,180787.500,0.000
183013.500,172007.200,333066.500,366670.600,182765.600,189289.300,193529.700,182287.000,0.000
185260.900,175868.500,335234.900,372855.100,196089.700,191745.900,198461.900,187044.200,0.000
185945.500,177724.600,336163.600,376332.800,205174.400,192548.600,200744.500,188772.300,0.000
183937.900,174669.800,334366.400,371793.200,196382.500,190495.800,196870.000,184698.800,0.000
182200.000,171218.800,332488.400,365893.900,182642.400,188546.100,192504.500,180800.900,0.000
183029.500,172018.000,333037.900,366621.500,182764.100,189304.900,193539.100,182292.200,0.000
185270.600,175869.500,335203.100,372797.600,196077.700,191757.100,198466.800,187048.000,0.000
185948.500,177727.100,336131.500,376281.000,205178.600,192561.900,200754.500,188780.400,0.000
183943.100,174675.600,334333.900,371743.800,196391.800,190508.400,196878.500,184705.800,0.000
182206.900,171223.800,332453.300,365842.200,182645.100,188554.600,192508.800,180804.600,0.000
183028.700,172017.500,332996.800,366563.400,182754.500,189297.900,193533.400,182288.000,0.000
185269.700,175870.300,335160.000,372736.500,196065.800,191747.000,198454.400,187037.500,0.000
185955.700,177734.600,336094.600,376229.700,205187.800,192558.800,200750.700,188779.700,0.000
183953.300,174686.800,334298.600,371695.100,196404.000,190506.500,196879.500,184708.600,0.000
182214.900,171233.500,332418.700,365789.300,182644.200,188550.200,192506.900,180803.400,0.000
183036.600,172026.100,332963.800,366510.500,182752.100,189302.800,193537.000,182288.200,0.000
185274.300,175875.000,335127.200,372682.600,196064.200,191753.700,198462.800,187040.200,0.000
185953.500,177735.200,336058.600,376174.300,205191.200,192563.500,200757.600,188780.500,0.000
183950.000,174692.700,334266.300,371644.800,196422.200,190517.900,196892.900,184715.100,0.000
182203.800,171231.500,332379.300,365727.200,182652.000,188546.800,192508.100,180802.500,0.000
183028.600,172022.300,332924.000,366441.500,182746.500,189295.600,193531.800,182284.500,0.000
185273.700,175878.200,335090.200,372620.000,196061.400,191752.800,198461.900,187041.800,0.000
185954.000,177737.600,336022.100,376116.300,205191.000,192563.800,200761.000,188785.000,0.000
183946.700,174687.100,334225.000,371583.400,196423.200,190510.200,196891.000,184716.500,0.000
182203.700,171228.900,332342.800,365668.400,182660.100,188549.800,192513.700,180808.500,0.000
183027.500,172020.800,332886.300,366380.100,182746.200,189300.600,193536.700,182288.900,0.000
185273.100,175874.200,335051.700,372560.100,196054.600,191759.600,198469.500,187046.400,0.000
185959.000,177736.500,335983.900,376060.900,205195.200,192567.300,200764.700,188788.500,0.000
183952.800,174688.600,334186.200,371531.300,196440.800,190513.200,196894.100,184720.000,0.000
182203.300,171222.300,332295.700,365604.600,182660.500,188544.400,192505.900,180802.700,0.000
183022.400,172009.600,332837.100,366311.200,182732.900,189295.500,193526.600,182280.000,0.000
185269.000,175865.400,335003.300,372493.100,196039.400,191748.400,198453.100,187035.000,0.000
185961.800,177735.500,335940.700,376005.600,205191.100,192560.000,200755.200,188782.300,0.000
183955.800,174693.800,334148.800,371484.200,196448.700,190509.400,196893.200,184721.200,0.000
182199.600,171225.800,332258.500,365554.600,182661.800,188538.800,192503.800,180802.200,0.000
183017.700,172009.200,332796.400,366255.700,182718.900,189286.800,193520.000,182272.800,0.000
185270.600,175863.200,334960.900,372439.400,196031.200,191746.100,198450.500,187027.600,0.000
185967.000,177736.900,335901.800,375958.200,205196.000,192563.800,200760.500,188780.300,0.000
183962.100,174695.500,334109.800,371437.600,196459.800,190512.300,196900.700,184720.300,0.000
182199.300,171218.200,332215.500,365498.300,182661.200,188534.200,192503.000,180795.300,0.000
183012.600,171999.500,332754.400,366192.100,182708.600,189277.400,193513.900,182263.700,0.000
185262.000,175855.000,334918.700,372371.800,196013.500,191740.800,198444.700,187019.200,0.000
185958.400,177729.700,335856.300,375894.600,205189.800,192558.800,200758.100,188775.800,0.000
183953.400,174689.900,334062.600,371376.600,196462.400,190504.700,196897.300,184718.300,0.000
182199.600,171221.000,332171.500,365439.300,182661.100,188532.500,192505.500,180795.000,0.000
183015.500,171998.300,332709.400,366130.900,182704.800,189281.700,193519.200,182264.800,0.000
185259.000,175848.900,334871.900,372308.100,196001.800,191734.700,198439.200,187013.800,0.000
185954.700,177729.800,335813.100,375833.500,205183.800,192561.800,200759.600,188775.300,0.000
183950.200,174692.600,334022.200,371320.700,196473.300,190511.900,196905.900,184723.100,0.000
182194.000,171220.100,332128.600,365381.300,182671.900,188536.600,192505.500,180798.200,0.000
183006.100,171993.300,332661.600,366064.000,182697.600,189272.900,193504.500,182255.000,0.000
185253.500,175846.000,334824.800,372239.500,195989.300,191730.300,198431.700,187007.800,0.000
185955.600,177732.200,335771.700,375774.800,205180.300,192563.400,200759.900,188778.500,0.000
183958.100,174700.500,333983.300,371269.800,196482.800,190516.400,196908.700,184730.500,0.000
182202.800,171228.300,332090.800,365333.800,182688.700,188543.800,192512.100,180803.200,0.000
183005.100,171993.600,332621.600,366012.200,182699.200,189278.300,193509.400,182258.200,0.000
185252.400,175847.400,334785.400,372183.900,195976.500,191730.200,198432.100,187008.200,0.000
185953.500,177735.100,335734.800,375722.800,205178.700,192563.000,200763.500,188783.500,0.000
183957.500,174706.700,333949.500,371228.100,196497.200,190520.400,196917.600,184739.200,0.000
182200.400,171229.500,332053.900,365288.300,182691.300,188547.600,192515.900,180807.000,0.000
183010.400,171996.100,332583.600,365961.200,182687.800,189278.300,193509.700,182258.000,0.000
185261.100,175851.500,334748.700,372133.800,195965.400,191738.000,198434.000,187011.600,0.000
185963.700,177741.800,335698.400,375676.600,205181.300,192572.500,200767.800,188791.900,0.000
183967.700,174716.600,333917.200,371191.300,196519.500,190536.700,196933.200,184755.100,0.000
182206.800,171234.300,332020.400,365246.800,182697.600,188552.700,192523.300,180813.400,0.000
183013.400,171996.900,332551.100,365912.500,182676.400,189286.000,193509.000,182259.400,0.000
185257.400,175844.700,334714.200,372078.800,195951.100,191733.500,198428.200,187011.300,0.000
185965.000,177737.100,335665.200,375626.500,205181.200,192568.400,200765.900,188794.300,0.000
183973.800,174719.700,333887.100,371148.500,196535.600,190532.500,196933.200,184757.800,0.000
182206.300,171231.600,331983.700,365198.600,182709.800,188551.500,192521.900,180810.900,0.000
183013.300,171990.500,332510.700,365856.500,182671.100,189282.500,193505.600,182255.100,0.000
185263.000,175844.100,334675.300,372023.100,195941.100,191740.100,198431.500,187010.900,0.000
185965.500,177738.000,335625.700,375572.100,205175.100,192575.500,200770.500,188793.000,0.000
183971.900,174718.200,333845.900,371091.800,196530.400,190536.700,196934.400,184754.300,0.000
182212.100,171238.300,331948.000,365145.600,182711.500,188560.300,192527.500,180814.100,0.000
183017.100,171998.000,332477.100,365803.200,182674.200,189291.600,193509.900,182255.300,0.000
185260.500,175845.500,334638.600,371962.500,195934.100,191741.800,198428.000,187004.500,0.000
185967.400,177743.700,335592.200,375518.500,205179.900,192581.500,200773.600,188795.500,0.000
183978.000,174726.900,333812.400,371045.600,196551.700,190542.100,196941.900,184762.700,0.000
182212.600,171239.700,331910.400,365093.900,182724.200,188562.700,192530.700,180816.500,0.000
183008.300,171986.000,332428.000,365737.900,182662.100,189286.900,193503.600,182251.300,0.000
185255.200,175834.300,334590.200,371901.100,195923.000,191738.800,198417.500,187000.400,0.000
185970.200,177742.000,335548.700,375466.600,205184.000,192582.900,200769.500,188795.400,0.000
183982.200,174730.900,333771.800,370996.300,196566.500,190548.700,196943.900,184765.200,0.000
182215.600,171243.000,331868.700,365040.200,182735.700,188565.800,192529.100,180816.100,0.000
183014.100,171990.100,332388.700,365678.800,182662.000,189282.900,193494.000,182243.800,0.000
185263.000,175838.700,334555.000,371842.600,195915.700,191745.000,198418.600,186998.200,0.000
185978.500,177751.500,335516.900,375416.300,205194.900,192588.600,200777.100,188799.900,0.000
183989.600,174742.000,333742.800,370949.700,196590.800,190553.500,196954.900,184773.700,0.000
182221.800,171250.800,331840.600,364988.700,182750.500,188566.600,192535.300,180821.800,0.000
183016.200,171992.600,332361.000,365625.200,182663.700,189288.200,193497.700,182245.800,0.000
185265.000,175844.000,334524.800,371790.300,195911.100,191746.300,198418.000,186997.700,0.000
185977.300,177754.200,335481.500,375364.300,205192.900,192587.600,200775.300,188800.100,0.000
183988.100,174746.700,333706.300,370902.000,196603.500,190552.900,196953.400,184775.700,0.000
182213.500,171249.100,331799.400,364933.800,182752.200,188565.700,192529.600,180818.300,0.000
183009.200,171987.600,332317.100,365560.300,182645.300,189285.400,193489.600,182239.900,0.000
185264.800,175839.000,334480.300,371722.600,195888.400,191751.300,198414.000,186991.800,0.000
185981.000,177751.700,335441.900,375306.100,205187.400,192599.800,200780.200,188801.100,0.000
183989.600,174745.600,333668.300,370847.300,196601.000,190548.100,196955.200,184775.600,0.000
182219.600,171253.100,331764.500,364883.400,182747.900,188559.600,192530.000,180820.700,0.000
183005.900,171986.200,332275.200,365505.600,182629.300,189275.800,193481.600,182236.500,0.000
185245.500,175825.800,334431.400,371659.200,195862.400,191729.700,198396.600,186984.300,0.000
185968.100,177748.000,335398.500,375250.900,205179.900,192580.800,200770.300,188803.500,0.000
183983.600,174749.300,333628.700,370803.700,196616.300,190550.300,196961.900,184787.800,0.000
182205.400,171244.700,331716.000,364827.700,182744.100,188557.400,192529.800,180820.200,0.000
182996.500,171976.800,332228.000,365444.000,182615.000,189273.500,193480.200,182232.500,0.000
185243.300,175819.100,334387.800,371597.800,195848.600,191729.100,198394.400,186980.500,0.000
185967.200,177742.600,335351.800,375189.600,205170.300,192582.000,200767.000,188798.200,0.000
183985.500,174745.700,333582.700,370745.900,196619.400,190549.900,196960.500,184786.900,0.000
182209.900,171246.600,331673.900,364775.200,182758.900,188559.600,192533.600,180827.000,0.000
182995.700,171971.100,332183.900,365383.800,182617.800,189268.600,193477.300,182234.800,0.000
185239.100,175811.500,334342.100,371531.300,195841.000,191724.400,198390.400,186981.900,0.000
185965.800,177739.200,335309.800,375126.500,205168.800,192581.100,200768.400,188805.100,0.000
183987.100,174745.600,333542.600,370691.400,196632.400,190554.100,196966.400,184794.800,0.000
182219.400,171250.000,331635.200,364724.400,182779.400,188564.100,192537.900,180828.800,0.000
183003.300,171974.700,332142.100,365327.900,182625.200,189272.100,193474.800,182228.600,0.000
185241.500,175812.000,334299.200,371469.500,195827.100,191722.600,198383.900,186970.800,0.000
185967.700,177742.300,335273.600,375069.800,205160.500,192583.800,200771.400,188801.300,0.000
183996.400,174760.200,333516.500,370648.800,196653.900,190571.300,196984.400,184804.700,0.000
182221.600,171259.400,331607.500,364678.700,182795.300,188571.900,192544.600,180832.000,0.000
182999.300,171976.300,332110.600,365274.800,182621.700,189275.800,193472.200,182226.000,0.000
185235.000,175807.500,334266.700,371412.300,195813.000,191716.600,198374.700,186967.200,0.000
185960.400,177737.100,335236.900,375012.900,205150.800,192571.800,200759.900,188797.000,0.000
183991.900,174759.500,333479.300,370600.500,196659.700,190556.600,196975.900,184802.500,0.000
182222.300,171262.400,331573.000,364635.200,182802.300,188573.800,192548.100,180835.200,0.000
183005.500,171979.300,332076.100,365227.000,182615.800,189279.400,193478.700,182226.100,0.000
185246.200,175812.000,334234.400,371364.300,195804.300,191724.900,198383.500,186969.300,0.000
